#EXPORTTYPE:                 	DATA SINGLE                              
#FILE:                       	SK_Clear_resin_entalp75kpm_20-150.ngb-sdg
#FORMAT:                     	NETZSCH5                                 
#FTYPE:                      	ASCII                                    
#IDENTITY:                   	SK_clear_resin                           
#DECIMAL:                    	POINT                                    
#SEPARATOR:                  	TAB                                      
#MTYPE:                      	DSC                                      
#INSTRUMENT:                 	NETZSCH DSC 214                          
#PROJECT:                    	?ø?†??-Ø                               
#DATE/TIME:                  	13.09.2019 18:37:53 (UTC+3)              
#CORR. FILE:                 	                                         
#TEMPCAL:                    	applied                                  
#SENSITIVITY:                	applied                                  
#LABORATORY:                 	CISIS                                    
#OPERATOR:                   	Nasonov                                  
#REMARK:                     	                                         
#SAMPLE:                     	1070-G290S -0-Ù.1-3-17X3                 
#SAMPLE MASS /mg:            	9.19                                     
#MATERIAL:                   	                                         
#REFERENCE:                  	                                         
#REFERENCE MASS /mg:         	7.76                                     
#TYPE OF CRUCIBLE:           	Concavus Pan Al, pierced lid             
#SAMPLE CRUCIBLE MASS /mg:   	0                                        
#REFERENCE CRUCIBLE MASS /mg:	0                                        
#M.RANGE /ßV:                	5000                                     
#TAU-R:                      	---                                      
#CORR. CODE:                 	009                                      
#EXO:                        	+1                                       
#RANGE:                      	20ËC/7.5(K/min)/150ËC                    
#SEGMENT:                    	S1/1                                     
#SEG. 1:                     	20ËC/7.5(K/min)/150ËC                    

##Temp./ËC	Time/min	DSC/(mW/mg)	Sensit./(uV/mW)
 20.05400	 0.00000	 2.252373e-002	3.36737
 20.05140	 0.01000	 2.252251e-002	3.36737
 20.05122	 0.02000	 2.286732e-002	3.36737
 20.05692	 0.03000	 2.304044e-002	3.36737
 20.07247	 0.04000	 2.393073e-002	3.36739
 20.09886	 0.05000	 2.719071e-002	3.36742
 20.13616	 0.06000	 3.294484e-002	3.36746
 20.18386	 0.07000	 3.993500e-002	3.36751
 20.24139	 0.08000	 4.638733e-002	3.36757
 20.30800	 0.09000	 5.188073e-002	3.36763
 20.38249	 0.10000	 5.609496e-002	3.36771
 20.46384	 0.11000	 5.873549e-002	3.36780
 20.55100	 0.12000	 5.952858e-002	3.36789
 20.64289	 0.13000	 5.847721e-002	3.36798
 20.72618	 0.14000	 5.587360e-002	3.36807
 20.80140	 0.15000	 5.176815e-002	3.36814
 20.88084	 0.16000	 4.571805e-002	3.36822
 20.96449	 0.17000	 3.838859e-002	3.36831
 21.05215	 0.18000	 2.928867e-002	3.36840
 21.14347	 0.19000	 1.898412e-002	3.36849
 21.23807	 0.20000	 7.450274e-003	3.36859
 21.33549	 0.21000	-5.092924e-003	3.36868
 21.43527	 0.22000	-1.822617e-002	3.36878
 21.53711	 0.23000	-3.236674e-002	3.36889
 21.64056	 0.24000	-4.663039e-002	3.36899
 21.74515	 0.25000	-6.136020e-002	3.36909
 21.85067	 0.26000	-7.653377e-002	3.36920
 21.95669	 0.27000	-9.153352e-002	3.36930
 22.06287	 0.28000	      -0.10621	3.36941
 22.16889	 0.29000	      -0.12088	3.36951
 22.27435	 0.30000	      -0.13513	3.36962
 22.37907	 0.31000	      -0.14859	3.36972
 22.48278	 0.32000	      -0.16176	3.36982
 22.58533	 0.33000	      -0.17397	3.36992
 22.68645	 0.34000	      -0.18539	3.37002
 22.78604	 0.35000	      -0.19627	3.37011
 22.88393	 0.36000	      -0.20638	3.37021
 22.97998	 0.37000	      -0.21519	3.37030
 23.07415	 0.38000	      -0.22307	3.37039
 23.16636	 0.39000	      -0.22985	3.37048
 23.25664	 0.40000	      -0.23626	3.37057
 23.34500	 0.41000	      -0.24158	3.37065
 23.43138	 0.42000	      -0.24568	3.37073
 23.51578	 0.43000	      -0.24914	3.37081
 23.59825	 0.44000	      -0.25180	3.37089
 23.67880	 0.45000	      -0.25378	3.37097
 23.75758	 0.46000	      -0.25468	3.37104
 23.83462	 0.47000	      -0.25482	3.37111
 23.91013	 0.48000	      -0.25463	3.37118
 23.98411	 0.49000	      -0.25378	3.37125
 24.05662	 0.50000	      -0.25212	3.37132
 24.12787	 0.51000	      -0.25028	3.37139
 24.19787	 0.52000	      -0.24794	3.37145
 24.26682	 0.53000	      -0.24507	3.37152
 24.33476	 0.54000	      -0.24170	3.37158
 24.40184	 0.55000	      -0.23809	3.37164
 24.46822	 0.56000	      -0.23453	3.37170
 24.53400	 0.57000	      -0.23093	3.37176
 24.59933	 0.58000	      -0.22682	3.37182
 24.66433	 0.59000	      -0.22280	3.37188
 24.72895	 0.60000	      -0.21879	3.37194
 24.79344	 0.61000	      -0.21469	3.37200
 24.85776	 0.62000	      -0.21076	3.37206
 24.92211	 0.63000	      -0.20674	3.37212
 24.98655	 0.64000	      -0.20310	3.37218
 25.05109	 0.65000	      -0.19941	3.37223
 25.11585	 0.66000	      -0.19587	3.37229
 25.18085	 0.67000	      -0.19282	3.37235
 25.24611	 0.68000	      -0.18967	3.37241
 25.31175	 0.69000	      -0.18684	3.37247
 25.37775	 0.70000	      -0.18433	3.37253
 25.44420	 0.71000	      -0.18209	3.37259
 25.51109	 0.72000	      -0.17961	3.37265
 25.57844	 0.73000	      -0.17776	3.37271
 25.64624	 0.74000	      -0.17589	3.37277
 25.71449	 0.75000	      -0.17466	3.37283
 25.78325	 0.76000	      -0.17356	3.37289
 25.85249	 0.77000	      -0.17243	3.37295
 25.92222	 0.78000	      -0.17152	3.37301
 25.99249	 0.79000	      -0.17105	3.37307
 26.06324	 0.80000	      -0.17070	3.37314
 26.13433	 0.81000	      -0.17049	3.37320
 26.20591	 0.82000	      -0.17041	3.37326
 26.27789	 0.83000	      -0.17045	3.37332
 26.35024	 0.84000	      -0.17049	3.37339
 26.42300	 0.85000	      -0.17060	3.37345
 26.49604	 0.86000	      -0.17109	3.37351
 26.56945	 0.87000	      -0.17179	3.37358
 26.64316	 0.88000	      -0.17269	3.37364
 26.71713	 0.89000	      -0.17346	3.37370
 26.79136	 0.90000	      -0.17444	3.37377
 26.86569	 0.91000	      -0.17563	3.37383
 26.94027	 0.92000	      -0.17673	3.37390
 27.01504	 0.93000	      -0.17741	3.37396
 27.08991	 0.94000	      -0.17831	3.37402
 27.16496	 0.95000	      -0.17956	3.37409
 27.24018	 0.96000	      -0.18059	3.37415
 27.31544	 0.97000	      -0.18152	3.37421
 27.39073	 0.98000	      -0.18247	3.37428
 27.46607	 0.99000	      -0.18342	3.37434
 27.54142	 1.00000	      -0.18442	3.37440
 27.61676	 1.01000	      -0.18540	3.37447
 27.69213	 1.02000	      -0.18628	3.37453
 27.76747	 1.03000	      -0.18711	3.37459
 27.84273	 1.04000	      -0.18802	3.37465
 27.91795	 1.05000	      -0.18887	3.37472
 27.99318	 1.06000	      -0.18960	3.37478
 28.06836	 1.07000	      -0.19034	3.37484
 28.14358	 1.08000	      -0.19093	3.37490
 28.21876	 1.09000	      -0.19148	3.37496
 28.29396	 1.10000	      -0.19170	3.37503
 28.36905	 1.11000	      -0.19235	3.37509
 28.44398	 1.12000	      -0.19292	3.37515
 28.51893	 1.13000	      -0.19346	3.37521
 28.59380	 1.14000	      -0.19398	3.37527
 28.66862	 1.15000	      -0.19450	3.37533
 28.74336	 1.16000	      -0.19485	3.37539
 28.81802	 1.17000	      -0.19476	3.37545
 28.89267	 1.18000	      -0.19486	3.37551
 28.96729	 1.19000	      -0.19523	3.37557
 29.04191	 1.20000	      -0.19534	3.37563
 29.11642	 1.21000	      -0.19541	3.37569
 29.19093	 1.22000	      -0.19543	3.37575
 29.26538	 1.23000	      -0.19540	3.37581
 29.33978	 1.24000	      -0.19545	3.37587
 29.41416	 1.25000	      -0.19561	3.37592
 29.48858	 1.26000	      -0.19581	3.37598
 29.56298	 1.27000	      -0.19575	3.37604
 29.63735	 1.28000	      -0.19587	3.37610
 29.71175	 1.29000	      -0.19589	3.37616
 29.78613	 1.30000	      -0.19596	3.37621
 29.86060	 1.31000	      -0.19601	3.37627
 29.93515	 1.32000	      -0.19603	3.37633
 30.00964	 1.33000	      -0.19600	3.37639
 30.08411	 1.34000	      -0.19594	3.37644
 30.15862	 1.35000	      -0.19599	3.37650
 30.23315	 1.36000	      -0.19573	3.37656
 30.30756	 1.37000	      -0.19581	3.37662
 30.38207	 1.38000	      -0.19584	3.37667
 30.45660	 1.39000	      -0.19588	3.37673
 30.53115	 1.40000	      -0.19588	3.37679
 30.60564	 1.41000	      -0.19587	3.37684
 30.68018	 1.42000	      -0.19607	3.37690
 30.75471	 1.43000	      -0.19627	3.37695
 30.82936	 1.44000	      -0.19633	3.37701
 30.90405	 1.45000	      -0.19636	3.37706
 30.97876	 1.46000	      -0.19630	3.37712
 31.05345	 1.47000	      -0.19633	3.37718
 31.12820	 1.48000	      -0.19641	3.37723
 31.20300	 1.49000	      -0.19663	3.37729
 31.27776	 1.50000	      -0.19696	3.37734
 31.35258	 1.51000	      -0.19708	3.37740
 31.42736	 1.52000	      -0.19706	3.37745
 31.50216	 1.53000	      -0.19709	3.37751
 31.57698	 1.54000	      -0.19732	3.37756
 31.65191	 1.55000	      -0.19720	3.37762
 31.72678	 1.56000	      -0.19740	3.37767
 31.80165	 1.57000	      -0.19761	3.37772
 31.87656	 1.58000	      -0.19778	3.37778
 31.95140	 1.59000	      -0.19786	3.37783
 32.02627	 1.60000	      -0.19799	3.37788
 32.10120	 1.61000	      -0.19822	3.37794
 32.17613	 1.62000	      -0.19832	3.37799
 32.25095	 1.63000	      -0.19852	3.37805
 32.32585	 1.64000	      -0.19872	3.37810
 32.40082	 1.65000	      -0.19890	3.37815
 32.47576	 1.66000	      -0.19898	3.37820
 32.55067	 1.67000	      -0.19926	3.37826
 32.62562	 1.68000	      -0.19928	3.37831
 32.70062	 1.69000	      -0.19927	3.37836
 32.77562	 1.70000	      -0.19952	3.37841
 32.85069	 1.71000	      -0.19960	3.37847
 32.92565	 1.72000	      -0.19972	3.37852
 33.00056	 1.73000	      -0.19993	3.37857
 33.07555	 1.74000	      -0.19979	3.37862
 33.15049	 1.75000	      -0.19988	3.37867
 33.22545	 1.76000	      -0.20002	3.37872
 33.30038	 1.77000	      -0.20029	3.37877
 33.37533	 1.78000	      -0.20043	3.37883
 33.45033	 1.79000	      -0.20054	3.37888
 33.52535	 1.80000	      -0.20068	3.37893
 33.60031	 1.81000	      -0.20084	3.37898
 33.67524	 1.82000	      -0.20103	3.37903
 33.75027	 1.83000	      -0.20100	3.37908
 33.82536	 1.84000	      -0.20097	3.37913
 33.90038	 1.85000	      -0.20103	3.37918
 33.97547	 1.86000	      -0.20110	3.37923
 34.05051	 1.87000	      -0.20123	3.37928
 34.12553	 1.88000	      -0.20130	3.37933
 34.20056	 1.89000	      -0.20139	3.37938
 34.27556	 1.90000	      -0.20139	3.37943
 34.35056	 1.91000	      -0.20141	3.37947
 34.42553	 1.92000	      -0.20150	3.37952
 34.50053	 1.93000	      -0.20177	3.37957
 34.57555	 1.94000	      -0.20179	3.37962
 34.65053	 1.95000	      -0.20193	3.37967
 34.72551	 1.96000	      -0.20198	3.37972
 34.80049	 1.97000	      -0.20207	3.37977
 34.87545	 1.98000	      -0.20214	3.37981
 34.95040	 1.99000	      -0.20221	3.37986
 35.02545	 2.00000	      -0.20235	3.37991
 35.10051	 2.01000	      -0.20253	3.37996
 35.17562	 2.02000	      -0.20257	3.38001
 35.25069	 2.03000	      -0.20261	3.38005
 35.32576	 2.04000	      -0.20285	3.38010
 35.40085	 2.05000	      -0.20294	3.38015
 35.47596	 2.06000	      -0.20305	3.38019
 35.55104	 2.07000	      -0.20314	3.38024
 35.62613	 2.08000	      -0.20333	3.38029
 35.70122	 2.09000	      -0.20341	3.38033
 35.77629	 2.10000	      -0.20350	3.38038
 35.85133	 2.11000	      -0.20361	3.38042
 35.92635	 2.12000	      -0.20373	3.38047
 36.00135	 2.13000	      -0.20382	3.38052
 36.07636	 2.14000	      -0.20404	3.38056
 36.15142	 2.15000	      -0.20422	3.38061
 36.22645	 2.16000	      -0.20423	3.38065
 36.30151	 2.17000	      -0.20431	3.38070
 36.37656	 2.18000	      -0.20439	3.38074
 36.45162	 2.19000	      -0.20455	3.38079
 36.52660	 2.20000	      -0.20467	3.38083
 36.60158	 2.21000	      -0.20495	3.38088
 36.67660	 2.22000	      -0.20508	3.38092
 36.75155	 2.23000	      -0.20519	3.38097
 36.82655	 2.24000	      -0.20532	3.38101
 36.90147	 2.25000	      -0.20547	3.38105
 36.97644	 2.26000	      -0.20570	3.38110
 37.05140	 2.27000	      -0.20588	3.38114
 37.12631	 2.28000	      -0.20584	3.38118
 37.20124	 2.29000	      -0.20583	3.38123
 37.27622	 2.30000	      -0.20592	3.38127
 37.35122	 2.31000	      -0.20610	3.38131
 37.42616	 2.32000	      -0.20631	3.38136
 37.50118	 2.33000	      -0.20642	3.38140
 37.57620	 2.34000	      -0.20641	3.38144
 37.65122	 2.35000	      -0.20660	3.38148
 37.72624	 2.36000	      -0.20666	3.38153
 37.80116	 2.37000	      -0.20679	3.38157
 37.87615	 2.38000	      -0.20700	3.38161
 37.95115	 2.39000	      -0.20721	3.38165
 38.02616	 2.40000	      -0.20711	3.38169
 38.10118	 2.41000	      -0.20709	3.38174
 38.17620	 2.42000	      -0.20734	3.38178
 38.25120	 2.43000	      -0.20754	3.38182
 38.32624	 2.44000	      -0.20766	3.38186
 38.40127	 2.45000	      -0.20777	3.38190
 38.47635	 2.46000	      -0.20789	3.38194
 38.55140	 2.47000	      -0.20807	3.38198
 38.62651	 2.48000	      -0.20837	3.38202
 38.70160	 2.49000	      -0.20857	3.38206
 38.77665	 2.50000	      -0.20872	3.38210
 38.85180	 2.51000	      -0.20889	3.38214
 38.92696	 2.52000	      -0.20939	3.38218
 39.00211	 2.53000	      -0.20954	3.38222
 39.07722	 2.54000	      -0.20941	3.38226
 39.15231	 2.55000	      -0.20953	3.38230
 39.22742	 2.56000	      -0.20954	3.38234
 39.30244	 2.57000	      -0.20966	3.38238
 39.37745	 2.58000	      -0.20975	3.38242
 39.45245	 2.59000	      -0.20985	3.38246
 39.52747	 2.60000	      -0.20987	3.38250
 39.60242	 2.61000	      -0.20998	3.38253
 39.67736	 2.62000	      -0.21005	3.38257
 39.75235	 2.63000	      -0.21007	3.38261
 39.82735	 2.64000	      -0.21019	3.38265
 39.90236	 2.65000	      -0.21040	3.38269
 39.97736	 2.66000	      -0.21040	3.38273
 40.05235	 2.67000	      -0.21044	3.38276
 40.12735	 2.68000	      -0.21053	3.38280
 40.20231	 2.69000	      -0.21057	3.38284
 40.27731	 2.70000	      -0.21071	3.38287
 40.35235	 2.71000	      -0.21080	3.38291
 40.42736	 2.72000	      -0.21086	3.38295
 40.50235	 2.73000	      -0.21093	3.38299
 40.57738	 2.74000	      -0.21099	3.38302
 40.65236	 2.75000	      -0.21113	3.38306
 40.72733	 2.76000	      -0.21115	3.38309
 40.80235	 2.77000	      -0.21129	3.38313
 40.87731	 2.78000	      -0.21138	3.38317
 40.95231	 2.79000	      -0.21154	3.38320
 41.02731	 2.80000	      -0.21167	3.38324
 41.10235	 2.81000	      -0.21172	3.38327
 41.17736	 2.82000	      -0.21170	3.38331
 41.25242	 2.83000	      -0.21171	3.38334
 41.32747	 2.84000	      -0.21191	3.38338
 41.40253	 2.85000	      -0.21216	3.38341
 41.47756	 2.86000	      -0.21216	3.38345
 41.55262	 2.87000	      -0.21222	3.38348
 41.62765	 2.88000	      -0.21234	3.38352
 41.70275	 2.89000	      -0.21254	3.38355
 41.77782	 2.90000	      -0.21262	3.38359
 41.85291	 2.91000	      -0.21295	3.38362
 41.92802	 2.92000	      -0.21300	3.38365
 42.00307	 2.93000	      -0.21300	3.38369
 42.07809	 2.94000	      -0.21307	3.38372
 42.15315	 2.95000	      -0.21315	3.38376
 42.22820	 2.96000	      -0.21325	3.38379
 42.30325	 2.97000	      -0.21332	3.38382
 42.37829	 2.98000	      -0.21341	3.38386
 42.45331	 2.99000	      -0.21368	3.38389
 42.52829	 3.00000	      -0.21373	3.38392
 42.60327	 3.01000	      -0.21376	3.38395
 42.67827	 3.02000	      -0.21393	3.38399
 42.75329	 3.03000	      -0.21405	3.38402
 42.82836	 3.04000	      -0.21417	3.38405
 42.90344	 3.05000	      -0.21427	3.38408
 42.97851	 3.06000	      -0.21446	3.38411
 43.05353	 3.07000	      -0.21462	3.38415
 43.12849	 3.08000	      -0.21481	3.38418
 43.20349	 3.09000	      -0.21493	3.38421
 43.27847	 3.10000	      -0.21515	3.38424
 43.35347	 3.11000	      -0.21524	3.38427
 43.42849	 3.12000	      -0.21526	3.38430
 43.50351	 3.13000	      -0.21520	3.38433
 43.57853	 3.14000	      -0.21530	3.38436
 43.65360	 3.15000	      -0.21544	3.38439
 43.72860	 3.16000	      -0.21555	3.38442
 43.80351	 3.17000	      -0.21567	3.38445
 43.87840	 3.18000	      -0.21584	3.38448
 43.95329	 3.19000	      -0.21610	3.38451
 44.02818	 3.20000	      -0.21618	3.38454
 44.10307	 3.21000	      -0.21622	3.38457
 44.17791	 3.22000	      -0.21623	3.38460
 44.25284	 3.23000	      -0.21627	3.38463
 44.32775	 3.24000	      -0.21631	3.38466
 44.40262	 3.25000	      -0.21640	3.38469
 44.47753	 3.26000	      -0.21648	3.38472
 44.55249	 3.27000	      -0.21652	3.38475
 44.62749	 3.28000	      -0.21661	3.38478
 44.70244	 3.29000	      -0.21669	3.38480
 44.77744	 3.30000	      -0.21688	3.38483
 44.85242	 3.31000	      -0.21704	3.38486
 44.92733	 3.32000	      -0.21725	3.38489
 45.00227	 3.33000	      -0.21724	3.38492
 45.07725	 3.34000	      -0.21717	3.38494
 45.15227	 3.35000	      -0.21718	3.38497
 45.22729	 3.36000	      -0.21714	3.38500
 45.30231	 3.37000	      -0.21712	3.38503
 45.37735	 3.38000	      -0.21726	3.38505
 45.45236	 3.39000	      -0.21734	3.38508
 45.52744	 3.40000	      -0.21754	3.38511
 45.60249	 3.41000	      -0.21758	3.38513
 45.67760	 3.42000	      -0.21763	3.38516
 45.75267	 3.43000	      -0.21774	3.38519
 45.82784	 3.44000	      -0.21802	3.38521
 45.90302	 3.45000	      -0.21798	3.38524
 45.97822	 3.46000	      -0.21828	3.38526
 46.05340	 3.47000	      -0.21836	3.38529
 46.12858	 3.48000	      -0.21839	3.38532
 46.20382	 3.49000	      -0.21851	3.38534
 46.27902	 3.50000	      -0.21874	3.38537
 46.35418	 3.51000	      -0.21887	3.38539
 46.42940	 3.52000	      -0.21897	3.38542
 46.50456	 3.53000	      -0.21907	3.38544
 46.57976	 3.54000	      -0.21920	3.38547
 46.65491	 3.55000	      -0.21925	3.38549
 46.73004	 3.56000	      -0.21923	3.38552
 46.80520	 3.57000	      -0.21928	3.38554
 46.88029	 3.58000	      -0.21948	3.38556
 46.95536	 3.59000	      -0.21973	3.38559
 47.03053	 3.60000	      -0.21971	3.38561
 47.10560	 3.61000	      -0.21973	3.38564
 47.18069	 3.62000	      -0.21983	3.38566
 47.25578	 3.63000	      -0.22002	3.38568
 47.33089	 3.64000	      -0.22004	3.38571
 47.40593	 3.65000	      -0.22008	3.38573
 47.48095	 3.66000	      -0.22010	3.38575
 47.55591	 3.67000	      -0.22004	3.38577
 47.63085	 3.68000	      -0.22001	3.38580
 47.70582	 3.69000	      -0.22003	3.38582
 47.78078	 3.70000	      -0.22017	3.38584
 47.85571	 3.71000	      -0.22027	3.38586
 47.93062	 3.72000	      -0.22029	3.38589
 48.00556	 3.73000	      -0.22028	3.38591
 48.08051	 3.74000	      -0.22029	3.38593
 48.15549	 3.75000	      -0.22025	3.38595
 48.23047	 3.76000	      -0.22018	3.38597
 48.30538	 3.77000	      -0.22017	3.38599
 48.38042	 3.78000	      -0.22040	3.38602
 48.45538	 3.79000	      -0.22055	3.38604
 48.53036	 3.80000	      -0.22049	3.38606
 48.60536	 3.81000	      -0.22045	3.38608
 48.68029	 3.82000	      -0.22041	3.38610
 48.75527	 3.83000	      -0.22034	3.38612
 48.83018	 3.84000	      -0.22045	3.38614
 48.90511	 3.85000	      -0.22051	3.38616
 48.98009	 3.86000	      -0.22047	3.38618
 49.05509	 3.87000	      -0.22064	3.38620
 49.13005	 3.88000	      -0.22052	3.38622
 49.20498	 3.89000	      -0.22082	3.38624
 49.27995	 3.90000	      -0.22097	3.38626
 49.35493	 3.91000	      -0.22089	3.38628
 49.42995	 3.92000	      -0.22102	3.38630
 49.50496	 3.93000	      -0.22105	3.38632
 49.57998	 3.94000	      -0.22115	3.38633
 49.65505	 3.95000	      -0.22134	3.38635
 49.73011	 3.96000	      -0.22127	3.38637
 49.80511	 3.97000	      -0.22118	3.38639
 49.88011	 3.98000	      -0.22130	3.38641
 49.95513	 3.99000	      -0.22153	3.38643
 50.03009	 4.00000	      -0.22160	3.38644
 50.10500	 4.01000	      -0.22173	3.38646
 50.17995	 4.02000	      -0.22183	3.38648
 50.25485	 4.03000	      -0.22179	3.38650
 50.32980	 4.04000	      -0.22202	3.38651
 50.40469	 4.05000	      -0.22194	3.38653
 50.47962	 4.06000	      -0.22192	3.38655
 50.55458	 4.07000	      -0.22183	3.38657
 50.62951	 4.08000	      -0.22172	3.38658
 50.70453	 4.09000	      -0.22185	3.38660
 50.77947	 4.10000	      -0.22188	3.38661
 50.85456	 4.11000	      -0.22202	3.38663
 50.92958	 4.12000	      -0.22198	3.38665
 51.00464	 4.13000	      -0.22201	3.38666
 51.07965	 4.14000	      -0.22212	3.38668
 51.15460	 4.15000	      -0.22225	3.38670
 51.22960	 4.16000	      -0.22219	3.38671
 51.30465	 4.17000	      -0.22220	3.38673
 51.37965	 4.18000	      -0.22213	3.38674
 51.45467	 4.19000	      -0.22219	3.38676
