#EXPORTTYPE:                 	DATA SINGLE                            
#FILE:                       	SK_Mix_resin_entalp10kpm_20-150.ngb-sdg
#FORMAT:                     	NETZSCH5                               
#FTYPE:                      	ASCII                                  
#IDENTITY:                   	1                                      
#DECIMAL:                    	POINT                                  
#SEPARATOR:                  	TAB                                    
#MTYPE:                      	DSC                                    
#INSTRUMENT:                 	NETZSCH DSC 214                        
#PROJECT:                    	?ø?†??-Ø                             
#DATE/TIME:                  	12.09.2019 20:12:26 (UTC+3)            
#CORR. FILE:                 	                                       
#TEMPCAL:                    	applied                                
#SENSITIVITY:                	applied                                
#LABORATORY:                 	CISIS                                  
#OPERATOR:                   	Nasonov                                
#REMARK:                     	                                       
#SAMPLE:                     	20190907_1083-G290S -0-                
#SAMPLE MASS /mg:            	6.8                                    
#MATERIAL:                   	                                       
#REFERENCE:                  	                                       
#REFERENCE MASS /mg:         	0                                      
#TYPE OF CRUCIBLE:           	Concavus Pan Al, pierced lid           
#SAMPLE CRUCIBLE MASS /mg:   	0                                      
#REFERENCE CRUCIBLE MASS /mg:	0                                      
#M.RANGE /ßV:                	5000                                   
#TAU-R:                      	---                                    
#CORR. CODE:                 	009                                    
#EXO:                        	+1                                     
#RANGE:                      	20ËC/10.0(K/min)/250ËC                 
#SEGMENT:                    	S1/1                                   
#SEG. 1:                     	20ËC/10.0(K/min)/250ËC                 

##Temp./ËC	Time/min	DSC/(mW/mg)	Sensit./(uV/mW)
 20.04200	 0.00000	 3.906300e-002	3.36736
 20.04257	 0.01000	 3.926298e-002	3.36736
 20.04262	 0.02000	 3.962950e-002	3.36736
 20.05011	 0.03000	 3.966288e-002	3.36737
 20.07088	 0.04000	 3.883601e-002	3.36739
 20.10658	 0.05000	 3.498080e-002	3.36743
 20.15692	 0.06000	 2.713596e-002	3.36748
 20.22086	 0.07000	 1.496760e-002	3.36754
 20.29745	 0.08000	-9.256246e-004	3.36762
 20.38544	 0.09000	-2.054126e-002	3.36771
 20.48348	 0.10000	-4.248241e-002	3.36782
 20.56018	 0.11000	-6.602029e-002	3.36789
 20.64413	 0.12000	-9.145035e-002	3.36798
 20.73562	 0.13000	      -0.11734	3.36807
 20.83457	 0.14000	      -0.14396	3.36818
 20.94066	 0.15000	      -0.17063	3.36828
 21.05341	 0.16000	      -0.19744	3.36840
 21.17215	 0.17000	      -0.22366	3.36852
 21.29626	 0.18000	      -0.24862	3.36864
 21.42513	 0.19000	      -0.27247	3.36877
 21.55800	 0.20000	      -0.29535	3.36891
 21.69433	 0.21000	      -0.31732	3.36904
 21.83343	 0.22000	      -0.33727	3.36918
 21.97484	 0.23000	      -0.35627	3.36932
 22.11797	 0.24000	      -0.37330	3.36946
 22.26221	 0.25000	      -0.38880	3.36960
 22.40713	 0.26000	      -0.40216	3.36975
 22.55225	 0.27000	      -0.41442	3.36989
 22.69703	 0.28000	      -0.42458	3.37003
 22.84123	 0.29000	      -0.43325	3.37017
 22.98433	 0.30000	      -0.44005	3.37031
 23.12600	 0.31000	      -0.44543	3.37044
 23.26602	 0.32000	      -0.44916	3.37058
 23.40420	 0.33000	      -0.45139	3.37071
 23.54028	 0.34000	      -0.45232	3.37084
 23.67397	 0.35000	      -0.45193	3.37096
 23.80531	 0.36000	      -0.45043	3.37109
 23.93398	 0.37000	      -0.44755	3.37121
 24.06000	 0.38000	      -0.44372	3.37132
 24.18333	 0.39000	      -0.43935	3.37144
 24.30387	 0.40000	      -0.43386	3.37155
 24.42169	 0.41000	      -0.42800	3.37166
 24.53687	 0.42000	      -0.42145	3.37177
 24.64943	 0.43000	      -0.41453	3.37187
 24.75931	 0.44000	      -0.40695	3.37197
 24.86684	 0.45000	      -0.39920	3.37207
 24.97195	 0.46000	      -0.39153	3.37216
 25.07487	 0.47000	      -0.38372	3.37226
 25.17564	 0.48000	      -0.37631	3.37235
 25.27434	 0.49000	      -0.36855	3.37244
 25.37130	 0.50000	      -0.36065	3.37252
 25.46648	 0.51000	      -0.35328	3.37261
 25.56020	 0.52000	      -0.34595	3.37269
 25.65254	 0.53000	      -0.33889	3.37277
 25.74354	 0.54000	      -0.33266	3.37285
 25.83354	 0.55000	      -0.32616	3.37293
 25.92261	 0.56000	      -0.32043	3.37301
 26.01093	 0.57000	      -0.31536	3.37309
 26.09869	 0.58000	      -0.31034	3.37317
 26.18590	 0.59000	      -0.30575	3.37324
 26.27277	 0.60000	      -0.30150	3.37332
 26.35936	 0.61000	      -0.29775	3.37340
 26.44577	 0.62000	      -0.29459	3.37347
 26.53225	 0.63000	      -0.29190	3.37355
 26.61880	 0.64000	      -0.28955	3.37362
 26.70556	 0.65000	      -0.28766	3.37369
 26.79251	 0.66000	      -0.28646	3.37377
 26.87979	 0.67000	      -0.28537	3.37384
 26.96748	 0.68000	      -0.28471	3.37392
 27.05570	 0.69000	      -0.28395	3.37399
 27.14439	 0.70000	      -0.28366	3.37407
 27.23369	 0.71000	      -0.28367	3.37414
 27.32346	 0.72000	      -0.28395	3.37422
 27.41377	 0.73000	      -0.28492	3.37430
 27.50469	 0.74000	      -0.28616	3.37437
 27.59623	 0.75000	      -0.28720	3.37445
 27.68834	 0.76000	      -0.28847	3.37453
 27.78105	 0.77000	      -0.28981	3.37460
 27.87438	 0.78000	      -0.29154	3.37468
 27.96833	 0.79000	      -0.29327	3.37476
 28.06284	 0.80000	      -0.29508	3.37484
 28.15795	 0.81000	      -0.29694	3.37491
 28.25374	 0.82000	      -0.29890	3.37499
 28.34998	 0.83000	      -0.30079	3.37507
 28.44677	 0.84000	      -0.30278	3.37515
 28.54398	 0.85000	      -0.30470	3.37523
 28.64162	 0.86000	      -0.30672	3.37531
 28.73970	 0.87000	      -0.30881	3.37539
 28.83813	 0.88000	      -0.31077	3.37547
 28.93693	 0.89000	      -0.31259	3.37555
 29.03603	 0.90000	      -0.31446	3.37562
 29.13546	 0.91000	      -0.31609	3.37570
 29.23503	 0.92000	      -0.31729	3.37578
 29.33485	 0.93000	      -0.31875	3.37586
 29.43490	 0.94000	      -0.32035	3.37594
 29.53513	 0.95000	      -0.32168	3.37602
 29.63551	 0.96000	      -0.32271	3.37610
 29.73610	 0.97000	      -0.32354	3.37618
 29.83675	 0.98000	      -0.32454	3.37625
 29.93744	 0.99000	      -0.32544	3.37633
 30.03821	 1.00000	      -0.32638	3.37641
 30.13898	 1.01000	      -0.32756	3.37649
 30.23967	 1.02000	      -0.32789	3.37656
 30.34034	 1.03000	      -0.32824	3.37664
 30.44098	 1.04000	      -0.32879	3.37672
 30.54159	 1.05000	      -0.32945	3.37679
 30.64218	 1.06000	      -0.32970	3.37687
 30.74269	 1.07000	      -0.33005	3.37694
 30.84323	 1.08000	      -0.33041	3.37702
 30.94362	 1.09000	      -0.33050	3.37709
 31.04390	 1.10000	      -0.33065	3.37717
 31.14411	 1.11000	      -0.33074	3.37724
 31.24431	 1.12000	      -0.33062	3.37732
 31.34451	 1.13000	      -0.33064	3.37739
 31.44470	 1.14000	      -0.33063	3.37746
 31.54482	 1.15000	      -0.33051	3.37754
 31.64482	 1.16000	      -0.33070	3.37761
 31.74462	 1.17000	      -0.33065	3.37768
 31.84428	 1.18000	      -0.33080	3.37775
 31.94393	 1.19000	      -0.33055	3.37783
 32.04354	 1.20000	      -0.33041	3.37790
 32.14311	 1.21000	      -0.33046	3.37797
 32.24267	 1.22000	      -0.33031	3.37804
 32.34221	 1.23000	      -0.33023	3.37811
 32.44170	 1.24000	      -0.33019	3.37818
 32.54115	 1.25000	      -0.33004	3.37825
 32.64048	 1.26000	      -0.33003	3.37832
 32.73989	 1.27000	      -0.32991	3.37839
 32.83916	 1.28000	      -0.32987	3.37846
 32.93843	 1.29000	      -0.32982	3.37853
 33.03766	 1.30000	      -0.32986	3.37860
 33.13682	 1.31000	      -0.32993	3.37866
 33.23605	 1.32000	      -0.33002	3.37873
 33.33520	 1.33000	      -0.32999	3.37880
 33.43428	 1.34000	      -0.32975	3.37887
 33.53341	 1.35000	      -0.32975	3.37893
 33.63252	 1.36000	      -0.32984	3.37900
 33.73169	 1.37000	      -0.32997	3.37907
 33.83095	 1.38000	      -0.33017	3.37913
 33.93023	 1.39000	      -0.33010	3.37920
 34.02957	 1.40000	      -0.33008	3.37926
 34.12895	 1.41000	      -0.33018	3.37933
 34.22839	 1.42000	      -0.33030	3.37940
 34.32785	 1.43000	      -0.33033	3.37946
 34.42728	 1.44000	      -0.33062	3.37953
 34.52670	 1.45000	      -0.33085	3.37959
 34.62618	 1.46000	      -0.33104	3.37965
 34.72574	 1.47000	      -0.33136	3.37972
 34.82531	 1.48000	      -0.33142	3.37978
 34.92490	 1.49000	      -0.33171	3.37985
 35.02457	 1.50000	      -0.33199	3.37991
 35.12434	 1.51000	      -0.33233	3.37997
 35.22411	 1.52000	      -0.33253	3.38004
 35.32400	 1.53000	      -0.33266	3.38010
 35.42387	 1.54000	      -0.33300	3.38016
 35.52379	 1.55000	      -0.33294	3.38022
 35.62375	 1.56000	      -0.33314	3.38028
 35.72374	 1.57000	      -0.33331	3.38035
 35.82370	 1.58000	      -0.33354	3.38041
 35.92374	 1.59000	      -0.33381	3.38047
 36.02370	 1.60000	      -0.33412	3.38053
 36.12367	 1.61000	      -0.33442	3.38059
 36.22357	 1.62000	      -0.33469	3.38065
 36.32349	 1.63000	      -0.33499	3.38071
 36.42344	 1.64000	      -0.33529	3.38077
 36.52352	 1.65000	      -0.33562	3.38083
 36.62357	 1.66000	      -0.33588	3.38089
 36.72357	 1.67000	      -0.33595	3.38095
 36.82351	 1.68000	      -0.33612	3.38101
 36.92354	 1.69000	      -0.33632	3.38107
 37.02361	 1.70000	      -0.33655	3.38112
 37.12362	 1.71000	      -0.33679	3.38118
 37.22359	 1.72000	      -0.33717	3.38124
 37.32356	 1.73000	      -0.33731	3.38130
 37.42354	 1.74000	      -0.33742	3.38136
 37.52349	 1.75000	      -0.33757	3.38141
 37.62343	 1.76000	      -0.33768	3.38147
 37.72333	 1.77000	      -0.33792	3.38152
 37.82326	 1.78000	      -0.33820	3.38158
 37.92315	 1.79000	      -0.33837	3.38164
 38.02303	 1.80000	      -0.33859	3.38169
 38.12290	 1.81000	      -0.33889	3.38175
 38.22282	 1.82000	      -0.33917	3.38180
 38.32267	 1.83000	      -0.33937	3.38186
 38.42259	 1.84000	      -0.33954	3.38191
 38.52252	 1.85000	      -0.33962	3.38197
 38.62241	 1.86000	      -0.34025	3.38202
 38.72238	 1.87000	      -0.34046	3.38207
 38.82243	 1.88000	      -0.34063	3.38213
 38.92243	 1.89000	      -0.34094	3.38218
 39.02246	 1.90000	      -0.34108	3.38223
 39.12249	 1.91000	      -0.34122	3.38229
 39.22252	 1.92000	      -0.34135	3.38234
 39.32251	 1.93000	      -0.34155	3.38239
 39.42254	 1.94000	      -0.34185	3.38244
 39.52257	 1.95000	      -0.34214	3.38249
 39.62264	 1.96000	      -0.34208	3.38255
 39.72270	 1.97000	      -0.34244	3.38260
 39.82277	 1.98000	      -0.34267	3.38265
 39.92290	 1.99000	      -0.34287	3.38270
 40.02302	 2.00000	      -0.34317	3.38275
 40.12313	 2.01000	      -0.34313	3.38280
 40.22321	 2.02000	      -0.34343	3.38285
 40.32328	 2.03000	      -0.34345	3.38290
 40.42338	 2.04000	      -0.34358	3.38295
 40.52349	 2.05000	      -0.34361	3.38300
 40.62359	 2.06000	      -0.34374	3.38304
 40.72366	 2.07000	      -0.34400	3.38309
 40.82366	 2.08000	      -0.34413	3.38314
 40.92367	 2.09000	      -0.34419	3.38319
 41.02364	 2.10000	      -0.34430	3.38324
 41.12361	 2.11000	      -0.34453	3.38328
 41.22357	 2.12000	      -0.34472	3.38333
 41.32352	 2.13000	      -0.34492	3.38338
 41.42351	 2.14000	      -0.34518	3.38342
 41.52352	 2.15000	      -0.34534	3.38347
 41.62348	 2.16000	      -0.34560	3.38352
 41.72348	 2.17000	      -0.34570	3.38356
 41.82348	 2.18000	      -0.34593	3.38361
 41.92349	 2.19000	      -0.34612	3.38365
 42.02354	 2.20000	      -0.34625	3.38370
 42.12349	 2.21000	      -0.34643	3.38374
 42.22338	 2.22000	      -0.34679	3.38379
 42.32334	 2.23000	      -0.34717	3.38383
 42.42339	 2.24000	      -0.34722	3.38388
 42.52339	 2.25000	      -0.34754	3.38392
 42.62346	 2.26000	      -0.34773	3.38396
 42.72349	 2.27000	      -0.34791	3.38401
 42.82361	 2.28000	      -0.34810	3.38405
 42.92364	 2.29000	      -0.34838	3.38409
 43.02370	 2.30000	      -0.34864	3.38413
 43.12379	 2.31000	      -0.34886	3.38418
 43.22392	 2.32000	      -0.34912	3.38422
 43.32405	 2.33000	      -0.34917	3.38426
 43.42423	 2.34000	      -0.34953	3.38430
 43.52433	 2.35000	      -0.34988	3.38434
 43.62443	 2.36000	      -0.35024	3.38438
 43.72452	 2.37000	      -0.35049	3.38442
 43.82461	 2.38000	      -0.35075	3.38446
 43.92464	 2.39000	      -0.35110	3.38450
 44.02466	 2.40000	      -0.35127	3.38454
 44.12467	 2.41000	      -0.35147	3.38458
 44.22477	 2.42000	      -0.35161	3.38462
 44.32490	 2.43000	      -0.35174	3.38466
 44.42493	 2.44000	      -0.35191	3.38470
 44.52502	 2.45000	      -0.35184	3.38474
 44.62507	 2.46000	      -0.35197	3.38477
 44.72523	 2.47000	      -0.35234	3.38481
 44.82536	 2.48000	      -0.35261	3.38485
 44.92549	 2.49000	      -0.35277	3.38489
 45.02566	 2.50000	      -0.35304	3.38492
 45.12572	 2.51000	      -0.35333	3.38496
 45.22577	 2.52000	      -0.35322	3.38500
 45.32579	 2.53000	      -0.35341	3.38503
 45.42575	 2.54000	      -0.35341	3.38507
 45.52570	 2.55000	      -0.35350	3.38511
 45.62566	 2.56000	      -0.35392	3.38514
 45.72562	 2.57000	      -0.35428	3.38518
 45.82561	 2.58000	      -0.35444	3.38521
 45.92554	 2.59000	      -0.35463	3.38525
 46.02551	 2.60000	      -0.35462	3.38528
 46.12551	 2.61000	      -0.35467	3.38531
 46.22551	 2.62000	      -0.35485	3.38535
 46.32551	 2.63000	      -0.35500	3.38538
 46.42551	 2.64000	      -0.35515	3.38542
 46.52546	 2.65000	      -0.35530	3.38545
 46.62541	 2.66000	      -0.35575	3.38548
 46.72526	 2.67000	      -0.35580	3.38551
 46.82503	 2.68000	      -0.35595	3.38555
 46.92484	 2.69000	      -0.35614	3.38558
 47.02464	 2.70000	      -0.35630	3.38561
 47.12448	 2.71000	      -0.35647	3.38564
 47.22439	 2.72000	      -0.35678	3.38567
 47.32431	 2.73000	      -0.35699	3.38570
 47.42426	 2.74000	      -0.35733	3.38573
 47.52421	 2.75000	      -0.35754	3.38576
 47.62416	 2.76000	      -0.35792	3.38580
 47.72408	 2.77000	      -0.35807	3.38583
 47.82402	 2.78000	      -0.35818	3.38585
 47.92395	 2.79000	      -0.35832	3.38588
 48.02385	 2.80000	      -0.35849	3.38591
 48.12380	 2.81000	      -0.35872	3.38594
 48.22380	 2.82000	      -0.35884	3.38597
 48.32374	 2.83000	      -0.35900	3.38600
 48.42369	 2.84000	      -0.35929	3.38603
 48.52369	 2.85000	      -0.35939	3.38606
 48.62364	 2.86000	      -0.35955	3.38608
 48.72364	 2.87000	      -0.35961	3.38611
 48.82364	 2.88000	      -0.35964	3.38614
 48.92367	 2.89000	      -0.36019	3.38616
 49.02380	 2.90000	      -0.36072	3.38619
 49.12389	 2.91000	      -0.36072	3.38622
 49.22397	 2.92000	      -0.36078	3.38624
 49.32397	 2.93000	      -0.36097	3.38627
 49.42398	 2.94000	      -0.36142	3.38629
 49.52398	 2.95000	      -0.36171	3.38632
 49.62400	 2.96000	      -0.36217	3.38634
 49.72415	 2.97000	      -0.36253	3.38637
 49.82423	 2.98000	      -0.36269	3.38639
 49.92444	 2.99000	      -0.36294	3.38642
 50.02461	 3.00000	      -0.36313	3.38644
 50.12470	 3.01000	      -0.36335	3.38647
 50.22479	 3.02000	      -0.36388	3.38649
 50.32492	 3.03000	      -0.36401	3.38651
 50.42508	 3.04000	      -0.36417	3.38654
 50.52520	 3.05000	      -0.36433	3.38656
 50.62523	 3.06000	      -0.36445	3.38658
 50.72526	 3.07000	      -0.36454	3.38660
 50.82533	 3.08000	      -0.36474	3.38663
 50.92549	 3.09000	      -0.36493	3.38665
 51.02554	 3.10000	      -0.36517	3.38667
 51.12561	 3.11000	      -0.36521	3.38669
 51.22566	 3.12000	      -0.36541	3.38671
 51.32574	 3.13000	      -0.36568	3.38673
 51.42582	 3.14000	      -0.36595	3.38675
 51.52597	 3.15000	      -0.36629	3.38677
 51.62611	 3.16000	      -0.36656	3.38679
 51.72616	 3.17000	      -0.36677	3.38681
 51.82618	 3.18000	      -0.36707	3.38683
 51.92613	 3.19000	      -0.36711	3.38685
 52.02613	 3.20000	      -0.36721	3.38687
 52.12620	 3.21000	      -0.36735	3.38689
 52.22623	 3.22000	      -0.36742	3.38690
 52.32626	 3.23000	      -0.36756	3.38692
 52.42628	 3.24000	      -0.36786	3.38694
 52.52634	 3.25000	      -0.36810	3.38696
 52.62638	 3.26000	      -0.36844	3.38697
 52.72643	 3.27000	      -0.36871	3.38699
 52.82643	 3.28000	      -0.36892	3.38701
 52.92639	 3.29000	      -0.36909	3.38703
 53.02630	 3.30000	      -0.36902	3.38704
 53.12626	 3.31000	      -0.36938	3.38706
 53.22625	 3.32000	      -0.36964	3.38707
 53.32628	 3.33000	      -0.36990	3.38709
 53.42628	 3.34000	      -0.37009	3.38710
 53.52626	 3.35000	      -0.37015	3.38712
 53.62626	 3.36000	      -0.37018	3.38713
 53.72625	 3.37000	      -0.37037	3.38715
 53.82623	 3.38000	      -0.37056	3.38716
 53.92620	 3.39000	      -0.37082	3.38718
 54.02629	 3.40000	      -0.37105	3.38719
 54.12631	 3.41000	      -0.37145	3.38720
 54.22634	 3.42000	      -0.37158	3.38722
 54.32638	 3.43000	      -0.37171	3.38723
 54.42639	 3.44000	      -0.37175	3.38724
 54.52639	 3.45000	      -0.37201	3.38725
 54.62644	 3.46000	      -0.37235	3.38727
 54.72649	 3.47000	      -0.37265	3.38728
 54.82662	 3.48000	      -0.37285	3.38729
 54.92670	 3.49000	      -0.37305	3.38730
 55.02684	 3.50000	      -0.37317	3.38731
 55.12692	 3.51000	      -0.37329	3.38732
 55.22695	 3.52000	      -0.37337	3.38733
 55.32698	 3.53000	      -0.37361	3.38734
 55.42703	 3.54000	      -0.37376	3.38735
 55.52710	 3.55000	      -0.37377	3.38736
 55.62723	 3.56000	      -0.37379	3.38737
 55.72733	 3.57000	      -0.37413	3.38738
 55.82739	 3.58000	      -0.37431	3.38739
 55.92749	 3.59000	      -0.37452	3.38740
 56.02744	 3.60000	      -0.37462	3.38741
 56.12743	 3.61000	      -0.37488	3.38742
 56.22743	 3.62000	      -0.37522	3.38742
 56.32736	 3.63000	      -0.37542	3.38743
 56.42738	 3.64000	      -0.37561	3.38744
 56.52739	 3.65000	      -0.37578	3.38745
 56.62743	 3.66000	      -0.37591	3.38745
 56.72746	 3.67000	      -0.37602	3.38746
 56.82748	 3.68000	      -0.37628	3.38747
 56.92752	 3.69000	      -0.37638	3.38747
 57.02748	 3.70000	      -0.37647	3.38748
 57.12743	 3.71000	      -0.37666	3.38748
 57.22744	 3.72000	      -0.37701	3.38749
 57.32741	 3.73000	      -0.37726	3.38750
 57.42736	 3.74000	      -0.37748	3.38750
 57.52725	 3.75000	      -0.37767	3.38750
 57.62715	 3.76000	      -0.37805	3.38751
 57.72705	 3.77000	      -0.37824	3.38751
 57.82697	 3.78000	      -0.37829	3.38752
 57.92687	 3.79000	      -0.37834	3.38752
 58.02684	 3.80000	      -0.37840	3.38752
 58.12682	 3.81000	      -0.37851	3.38753
 58.22677	 3.82000	      -0.37866	3.38753
 58.32679	 3.83000	      -0.37870	3.38753
 58.42674	 3.84000	      -0.37865	3.38754
 58.52669	 3.85000	      -0.37906	3.38754
 58.62659	 3.86000	      -0.37938	3.38754
 58.72648	 3.87000	      -0.37965	3.38754
 58.82636	 3.88000	      -0.37974	3.38754
 58.92626	 3.89000	      -0.38005	3.38754
 59.02618	 3.90000	      -0.38017	3.38754
 59.12616	 3.91000	      -0.38020	3.38755
 59.22618	 3.92000	      -0.38063	3.38755
 59.32621	 3.93000	      -0.38076	3.38755
 59.42628	 3.94000	      -0.38076	3.38755
 59.52639	 3.95000	      -0.38098	3.38754
 59.62641	 3.96000	      -0.38125	3.38754
 59.72633	 3.97000	      -0.38148	3.38754
 59.82633	 3.98000	      -0.38160	3.38754
 59.92643	 3.99000	      -0.38190	3.38754
 60.02651	 4.00000	      -0.38216	3.38754
 60.12657	 4.01000	      -0.38240	3.38754
 60.22667	 4.02000	      -0.38264	3.38754
 60.32677	 4.03000	      -0.38285	3.38753
 60.42685	 4.04000	      -0.38296	3.38753
 60.52690	 4.05000	      -0.38317	3.38753
 60.62690	 4.06000	      -0.38314	3.38752
 60.72695	 4.07000	      -0.38315	3.38752
 60.82700	 4.08000	      -0.38323	3.38752
 60.92705	 4.09000	      -0.38354	3.38751
 61.02707	 4.10000	      -0.38385	3.38751
 61.12715	 4.11000	      -0.38399	3.38750
 61.22720	 4.12000	      -0.38417	3.38750
 61.32718	 4.13000	      -0.38438	3.38749
 61.42720	 4.14000	      -0.38455	3.38749
 61.52720	 4.15000	      -0.38473	3.38748
 61.62721	 4.16000	      -0.38494	3.38748
 61.72726	 4.17000	      -0.38512	3.38747
 61.82733	 4.18000	      -0.38527	3.38747
 61.92738	 4.19000	      -0.38548	3.38746
 62.02739	 4.20000	      -0.38572	3.38745
