#EXPORTTYPE:                 	DATA SINGLE                              
#FILE:                       	SK_Clear_resin_entalp10kpm_20-150.ngb-sdg
#FORMAT:                     	NETZSCH5                                 
#FTYPE:                      	ASCII                                    
#IDENTITY:                   	SK_clear_resin                           
#DECIMAL:                    	POINT                                    
#SEPARATOR:                  	TAB                                      
#MTYPE:                      	DSC                                      
#INSTRUMENT:                 	NETZSCH DSC 214                          
#PROJECT:                    	?ø?†??-Ø                               
#DATE/TIME:                  	13.09.2019 18:18:30 (UTC+3)              
#CORR. FILE:                 	                                         
#TEMPCAL:                    	applied                                  
#SENSITIVITY:                	applied                                  
#LABORATORY:                 	CISIS                                    
#OPERATOR:                   	Nasonov                                  
#REMARK:                     	                                         
#SAMPLE:                     	1070-G290S -0-Ù.1-3-17X3                 
#SAMPLE MASS /mg:            	7.81                                     
#MATERIAL:                   	                                         
#REFERENCE:                  	                                         
#REFERENCE MASS /mg:         	7.76                                     
#TYPE OF CRUCIBLE:           	Concavus Pan Al, pierced lid             
#SAMPLE CRUCIBLE MASS /mg:   	0                                        
#REFERENCE CRUCIBLE MASS /mg:	0                                        
#M.RANGE /ßV:                	5000                                     
#TAU-R:                      	---                                      
#CORR. CODE:                 	009                                      
#EXO:                        	+1                                       
#RANGE:                      	20ËC/10.0(K/min)/150ËC                   
#SEGMENT:                    	S1/1                                     
#SEG. 1:                     	20ËC/10.0(K/min)/150ËC                   

##Temp./ËC	Time/min	DSC/(mW/mg)	Sensit./(uV/mW)
 20.04200	 0.00000	 2.977584e-002	3.36736
 20.04014	 0.01000	 2.965883e-002	3.36736
 20.04054	 0.02000	 2.948481e-002	3.36736
 20.04737	 0.03000	 2.934014e-002	3.36736
 20.06740	 0.04000	 2.954732e-002	3.36738
 20.10158	 0.05000	 3.321125e-002	3.36742
 20.15027	 0.06000	 3.920236e-002	3.36747
 20.21267	 0.07000	 4.708485e-002	3.36754
 20.28794	 0.08000	 5.445116e-002	3.36761
 20.37493	 0.09000	 6.042940e-002	3.36770
 20.47241	 0.10000	 6.351191e-002	3.36780
 20.54839	 0.11000	 6.465329e-002	3.36788
 20.63192	 0.12000	 6.292694e-002	3.36797
 20.72293	 0.13000	 5.876926e-002	3.36806
 20.82152	 0.14000	 5.220800e-002	3.36816
 20.92743	 0.15000	 4.344716e-002	3.36827
 21.04020	 0.16000	 3.202363e-002	3.36838
 21.15903	 0.17000	 1.857820e-002	3.36851
 21.28336	 0.18000	 3.686191e-003	3.36863
 21.41259	 0.19000	-1.320208e-002	3.36876
 21.54605	 0.20000	-3.142066e-002	3.36889
 21.68310	 0.21000	-5.065201e-002	3.36903
 21.82318	 0.22000	-7.098074e-002	3.36917
 21.96559	 0.23000	-9.182849e-002	3.36931
 22.10980	 0.24000	      -0.11301	3.36945
 22.25526	 0.25000	      -0.13472	3.36960
 22.40136	 0.26000	      -0.15592	3.36974
 22.54764	 0.27000	      -0.17684	3.36988
 22.69364	 0.28000	      -0.19706	3.37003
 22.83887	 0.29000	      -0.21678	3.37017
 22.98302	 0.30000	      -0.23564	3.37030
 23.12559	 0.31000	      -0.25352	3.37044
 23.26643	 0.32000	      -0.27045	3.37058
 23.40515	 0.33000	      -0.28616	3.37071
 23.54157	 0.34000	      -0.30089	3.37084
 23.67556	 0.35000	      -0.31422	3.37096
 23.80680	 0.36000	      -0.32634	3.37109
 23.93533	 0.37000	      -0.33713	3.37121
 24.06108	 0.38000	      -0.34644	3.37133
 24.18393	 0.39000	      -0.35428	3.37144
 24.30385	 0.40000	      -0.36109	3.37155
 24.42090	 0.41000	      -0.36633	3.37166
 24.53511	 0.42000	      -0.37045	3.37176
 24.64664	 0.43000	      -0.37361	3.37187
 24.75543	 0.44000	      -0.37550	3.37197
 24.86162	 0.45000	      -0.37635	3.37206
 24.96544	 0.46000	      -0.37613	3.37216
 25.06698	 0.47000	      -0.37529	3.37225
 25.16638	 0.48000	      -0.37339	3.37234
 25.26377	 0.49000	      -0.37080	3.37243
 25.35933	 0.50000	      -0.36757	3.37251
 25.45326	 0.51000	      -0.36377	3.37260
 25.54562	 0.52000	      -0.35950	3.37268
 25.63666	 0.53000	      -0.35474	3.37276
 25.72661	 0.54000	      -0.34960	3.37284
 25.81551	 0.55000	      -0.34415	3.37292
 25.90357	 0.56000	      -0.33869	3.37300
 25.99100	 0.57000	      -0.33332	3.37307
 26.07784	 0.58000	      -0.32751	3.37315
 26.16434	 0.59000	      -0.32192	3.37323
 26.25066	 0.60000	      -0.31611	3.37330
 26.33689	 0.61000	      -0.31049	3.37338
 26.42315	 0.62000	      -0.30488	3.37345
 26.50946	 0.63000	      -0.29973	3.37353
 26.59592	 0.64000	      -0.29510	3.37360
 26.68259	 0.65000	      -0.29032	3.37367
 26.76954	 0.66000	      -0.28569	3.37375
 26.85693	 0.67000	      -0.28152	3.37382
 26.94479	 0.68000	      -0.27747	3.37390
 27.03328	 0.69000	      -0.27403	3.37397
 27.12231	 0.70000	      -0.27056	3.37405
 27.21192	 0.71000	      -0.26768	3.37413
 27.30230	 0.72000	      -0.26546	3.37420
 27.39326	 0.73000	      -0.26329	3.37428
 27.48489	 0.74000	      -0.26136	3.37436
 27.57716	 0.75000	      -0.25957	3.37443
 27.67008	 0.76000	      -0.25874	3.37451
 27.76369	 0.77000	      -0.25808	3.37459
 27.85797	 0.78000	      -0.25736	3.37467
 27.95293	 0.79000	      -0.25661	3.37475
 28.04852	 0.80000	      -0.25594	3.37482
 28.14459	 0.81000	      -0.25599	3.37490
 28.24116	 0.82000	      -0.25643	3.37498
 28.33828	 0.83000	      -0.25720	3.37506
 28.43593	 0.84000	      -0.25801	3.37514
 28.53418	 0.85000	      -0.25876	3.37522
 28.63280	 0.86000	      -0.25971	3.37530
 28.73185	 0.87000	      -0.26083	3.37538
 28.83125	 0.88000	      -0.26207	3.37546
 28.93089	 0.89000	      -0.26331	3.37554
 29.03082	 0.90000	      -0.26459	3.37562
 29.13102	 0.91000	      -0.26613	3.37570
 29.23133	 0.92000	      -0.26749	3.37578
 29.33187	 0.93000	      -0.26876	3.37586
 29.43252	 0.94000	      -0.27030	3.37594
 29.53328	 0.95000	      -0.27178	3.37602
 29.63421	 0.96000	      -0.27314	3.37610
 29.73521	 0.97000	      -0.27453	3.37617
 29.83616	 0.98000	      -0.27600	3.37625
 29.93705	 0.99000	      -0.27736	3.37633
 30.03792	 1.00000	      -0.27870	3.37641
 30.13890	 1.01000	      -0.27962	3.37649
 30.23979	 1.02000	      -0.28059	3.37656
 30.34067	 1.03000	      -0.28168	3.37664
 30.44151	 1.04000	      -0.28323	3.37672
 30.54230	 1.05000	      -0.28421	3.37679
 30.64293	 1.06000	      -0.28507	3.37687
 30.74352	 1.07000	      -0.28589	3.37694
 30.84407	 1.08000	      -0.28667	3.37702
 30.94448	 1.09000	      -0.28698	3.37710
 31.04480	 1.10000	      -0.28751	3.37717
 31.14507	 1.11000	      -0.28825	3.37724
 31.24526	 1.12000	      -0.28888	3.37732
 31.34533	 1.13000	      -0.28921	3.37739
 31.44531	 1.14000	      -0.28981	3.37746
 31.54520	 1.15000	      -0.28997	3.37754
 31.64495	 1.16000	      -0.29016	3.37761
 31.74464	 1.17000	      -0.29052	3.37768
 31.84428	 1.18000	      -0.29083	3.37775
 31.94392	 1.19000	      -0.29113	3.37783
 32.04348	 1.20000	      -0.29106	3.37790
 32.14295	 1.21000	      -0.29108	3.37797
 32.24239	 1.22000	      -0.29107	3.37804
 32.34175	 1.23000	      -0.29117	3.37811
 32.44105	 1.24000	      -0.29127	3.37818
 32.54033	 1.25000	      -0.29118	3.37825
 32.63956	 1.26000	      -0.29119	3.37832
 32.73887	 1.27000	      -0.29121	3.37839
 32.83816	 1.28000	      -0.29117	3.37846
 32.93748	 1.29000	      -0.29113	3.37853
 33.03672	 1.30000	      -0.29117	3.37859
 33.13597	 1.31000	      -0.29114	3.37866
 33.23516	 1.32000	      -0.29096	3.37873
 33.33441	 1.33000	      -0.29098	3.37880
 33.43367	 1.34000	      -0.29101	3.37887
 33.53297	 1.35000	      -0.29106	3.37893
 33.63228	 1.36000	      -0.29097	3.37900
 33.73164	 1.37000	      -0.29086	3.37907
 33.83097	 1.38000	      -0.29079	3.37913
 33.93033	 1.39000	      -0.29085	3.37920
 34.02974	 1.40000	      -0.29098	3.37926
 34.12918	 1.41000	      -0.29112	3.37933
 34.22862	 1.42000	      -0.29140	3.37940
 34.32816	 1.43000	      -0.29140	3.37946
 34.42769	 1.44000	      -0.29136	3.37953
 34.52726	 1.45000	      -0.29130	3.37959
 34.62687	 1.46000	      -0.29135	3.37965
 34.72648	 1.47000	      -0.29123	3.37972
 34.82610	 1.48000	      -0.29122	3.37978
 34.92569	 1.49000	      -0.29142	3.37985
 35.02529	 1.50000	      -0.29154	3.37991
 35.12492	 1.51000	      -0.29155	3.37997
 35.22452	 1.52000	      -0.29178	3.38004
 35.32420	 1.53000	      -0.29216	3.38010
 35.42395	 1.54000	      -0.29225	3.38016
 35.52374	 1.55000	      -0.29234	3.38022
 35.62356	 1.56000	      -0.29266	3.38028
 35.72343	 1.57000	      -0.29298	3.38035
 35.82333	 1.58000	      -0.29298	3.38041
 35.92316	 1.59000	      -0.29327	3.38047
 36.02298	 1.60000	      -0.29360	3.38053
 36.12284	 1.61000	      -0.29372	3.38059
 36.22272	 1.62000	      -0.29378	3.38065
 36.32267	 1.63000	      -0.29389	3.38071
 36.42266	 1.64000	      -0.29433	3.38077
 36.52261	 1.65000	      -0.29461	3.38083
 36.62254	 1.66000	      -0.29490	3.38089
 36.72246	 1.67000	      -0.29519	3.38095
 36.82241	 1.68000	      -0.29528	3.38101
 36.92238	 1.69000	      -0.29531	3.38107
 37.02236	 1.70000	      -0.29563	3.38112
 37.12246	 1.71000	      -0.29604	3.38118
 37.22254	 1.72000	      -0.29625	3.38124
 37.32261	 1.73000	      -0.29649	3.38130
 37.42262	 1.74000	      -0.29691	3.38135
 37.52267	 1.75000	      -0.29689	3.38141
 37.62267	 1.76000	      -0.29733	3.38147
 37.72269	 1.77000	      -0.29754	3.38152
 37.82270	 1.78000	      -0.29796	3.38158
 37.92274	 1.79000	      -0.29843	3.38164
 38.02289	 1.80000	      -0.29873	3.38169
 38.12290	 1.81000	      -0.29911	3.38175
 38.22295	 1.82000	      -0.29941	3.38180
 38.32298	 1.83000	      -0.29947	3.38186
 38.42297	 1.84000	      -0.29976	3.38191
 38.52297	 1.85000	      -0.29997	3.38197
 38.62297	 1.86000	      -0.30029	3.38202
 38.72303	 1.87000	      -0.30065	3.38207
 38.82305	 1.88000	      -0.30094	3.38213
 38.92313	 1.89000	      -0.30149	3.38218
 39.02316	 1.90000	      -0.30168	3.38223
 39.12318	 1.91000	      -0.30177	3.38229
 39.22325	 1.92000	      -0.30194	3.38234
 39.32331	 1.93000	      -0.30208	3.38239
 39.42343	 1.94000	      -0.30229	3.38244
 39.52352	 1.95000	      -0.30249	3.38249
 39.62362	 1.96000	      -0.30263	3.38255
 39.72374	 1.97000	      -0.30275	3.38260
 39.82374	 1.98000	      -0.30289	3.38265
 39.92375	 1.99000	      -0.30309	3.38270
 40.02371	 2.00000	      -0.30321	3.38275
 40.12367	 2.01000	      -0.30329	3.38280
 40.22375	 2.02000	      -0.30340	3.38285
 40.32377	 2.03000	      -0.30360	3.38290
 40.42379	 2.04000	      -0.30374	3.38295
 40.52384	 2.05000	      -0.30394	3.38300
 40.62389	 2.06000	      -0.30417	3.38304
 40.72390	 2.07000	      -0.30439	3.38309
 40.82392	 2.08000	      -0.30456	3.38314
 40.92382	 2.09000	      -0.30456	3.38319
 41.02374	 2.10000	      -0.30480	3.38324
 41.12369	 2.11000	      -0.30482	3.38328
 41.22366	 2.12000	      -0.30499	3.38333
 41.32356	 2.13000	      -0.30528	3.38338
 41.42346	 2.14000	      -0.30556	3.38342
 41.52336	 2.15000	      -0.30585	3.38347
 41.62336	 2.16000	      -0.30614	3.38352
 41.72336	 2.17000	      -0.30628	3.38356
 41.82331	 2.18000	      -0.30636	3.38361
 41.92336	 2.19000	      -0.30673	3.38365
 42.02343	 2.20000	      -0.30699	3.38370
 42.12351	 2.21000	      -0.30721	3.38374
 42.22352	 2.22000	      -0.30722	3.38379
 42.32357	 2.23000	      -0.30753	3.38383
 42.42367	 2.24000	      -0.30760	3.38388
 42.52375	 2.25000	      -0.30791	3.38392
 42.62384	 2.26000	      -0.30821	3.38396
 42.72385	 2.27000	      -0.30843	3.38401
 42.82389	 2.28000	      -0.30865	3.38405
 42.92397	 2.29000	      -0.30890	3.38409
 43.02403	 2.30000	      -0.30910	3.38413
 43.12413	 2.31000	      -0.30940	3.38418
 43.22416	 2.32000	      -0.30971	3.38422
 43.32421	 2.33000	      -0.31005	3.38426
 43.42418	 2.34000	      -0.31016	3.38430
 43.52410	 2.35000	      -0.31018	3.38434
 43.62389	 2.36000	      -0.31043	3.38438
 43.72375	 2.37000	      -0.31062	3.38442
 43.82361	 2.38000	      -0.31093	3.38446
 43.92346	 2.39000	      -0.31147	3.38450
 44.02331	 2.40000	      -0.31171	3.38454
 44.12323	 2.41000	      -0.31159	3.38458
 44.22308	 2.42000	      -0.31162	3.38462
 44.32293	 2.43000	      -0.31188	3.38466
 44.42270	 2.44000	      -0.31214	3.38470
 44.52257	 2.45000	      -0.31237	3.38474
 44.62241	 2.46000	      -0.31252	3.38477
 44.72230	 2.47000	      -0.31264	3.38481
 44.82225	 2.48000	      -0.31284	3.38485
 44.92221	 2.49000	      -0.31307	3.38489
 45.02220	 2.50000	      -0.31336	3.38492
 45.12220	 2.51000	      -0.31364	3.38496
 45.22218	 2.52000	      -0.31384	3.38500
 45.32223	 2.53000	      -0.31403	3.38503
 45.42228	 2.54000	      -0.31423	3.38507
 45.52243	 2.55000	      -0.31436	3.38510
 45.62264	 2.56000	      -0.31453	3.38514
 45.72285	 2.57000	      -0.31470	3.38518
 45.82308	 2.58000	      -0.31489	3.38521
 45.92328	 2.59000	      -0.31529	3.38525
 46.02344	 2.60000	      -0.31537	3.38528
 46.12367	 2.61000	      -0.31564	3.38531
 46.22385	 2.62000	      -0.31592	3.38535
 46.32407	 2.63000	      -0.31611	3.38538
 46.42421	 2.64000	      -0.31630	3.38541
 46.52438	 2.65000	      -0.31648	3.38545
 46.62454	 2.66000	      -0.31659	3.38548
 46.72472	 2.67000	      -0.31666	3.38551
 46.82479	 2.68000	      -0.31676	3.38555
 46.92492	 2.69000	      -0.31701	3.38558
 47.02507	 2.70000	      -0.31732	3.38561
 47.12516	 2.71000	      -0.31753	3.38564
 47.22533	 2.72000	      -0.31771	3.38567
 47.32543	 2.73000	      -0.31789	3.38570
 47.42561	 2.74000	      -0.31799	3.38573
 47.52575	 2.75000	      -0.31794	3.38577
 47.62587	 2.76000	      -0.31813	3.38580
 47.72595	 2.77000	      -0.31825	3.38583
 47.82602	 2.78000	      -0.31840	3.38586
 47.92602	 2.79000	      -0.31867	3.38588
 48.02602	 2.80000	      -0.31891	3.38591
 48.12592	 2.81000	      -0.31937	3.38594
 48.22587	 2.82000	      -0.31925	3.38597
 48.32584	 2.83000	      -0.31935	3.38600
 48.42579	 2.84000	      -0.31952	3.38603
 48.52580	 2.85000	      -0.31955	3.38606
 48.62577	 2.86000	      -0.31983	3.38608
 48.72572	 2.87000	      -0.32011	3.38611
 48.82577	 2.88000	      -0.32025	3.38614
 48.92582	 2.89000	      -0.32042	3.38616
 49.02579	 2.90000	      -0.32059	3.38619
 49.12582	 2.91000	      -0.32076	3.38622
 49.22577	 2.92000	      -0.32072	3.38624
 49.32572	 2.93000	      -0.32075	3.38627
 49.42566	 2.94000	      -0.32077	3.38630
 49.52577	 2.95000	      -0.32102	3.38632
 49.62602	 2.96000	      -0.32125	3.38635
 49.72629	 2.97000	      -0.32150	3.38637
 49.82634	 2.98000	      -0.32167	3.38639
 49.92628	 2.99000	      -0.32186	3.38642
 50.02623	 3.00000	      -0.32194	3.38644
 50.12621	 3.01000	      -0.32190	3.38647
 50.22616	 3.02000	      -0.32219	3.38649
 50.32608	 3.03000	      -0.32250	3.38651
 50.42607	 3.04000	      -0.32252	3.38654
 50.52603	 3.05000	      -0.32260	3.38656
 50.62600	 3.06000	      -0.32268	3.38658
 50.72598	 3.07000	      -0.32300	3.38660
 50.82592	 3.08000	      -0.32317	3.38663
 50.92587	 3.09000	      -0.32336	3.38665
 51.02575	 3.10000	      -0.32357	3.38667
 51.12572	 3.11000	      -0.32381	3.38669
 51.22569	 3.12000	      -0.32384	3.38671
 51.32564	 3.13000	      -0.32373	3.38673
 51.42556	 3.14000	      -0.32373	3.38675
 51.52548	 3.15000	      -0.32386	3.38677
 51.62516	 3.16000	      -0.32427	3.38679
 51.72484	 3.17000	      -0.32427	3.38681
 51.82456	 3.18000	      -0.32442	3.38683
 51.92461	 3.19000	      -0.32451	3.38685
 52.02462	 3.20000	      -0.32474	3.38687
 52.12467	 3.21000	      -0.32483	3.38689
 52.22480	 3.22000	      -0.32492	3.38690
 52.32487	 3.23000	      -0.32505	3.38692
 52.42497	 3.24000	      -0.32520	3.38694
 52.52503	 3.25000	      -0.32540	3.38696
 52.62513	 3.26000	      -0.32558	3.38697
 52.72520	 3.27000	      -0.32582	3.38699
 52.82530	 3.28000	      -0.32591	3.38701
 52.92534	 3.29000	      -0.32609	3.38703
 53.02539	 3.30000	      -0.32638	3.38704
 53.12539	 3.31000	      -0.32652	3.38706
 53.22536	 3.32000	      -0.32642	3.38707
 53.32539	 3.33000	      -0.32636	3.38709
 53.42546	 3.34000	      -0.32638	3.38710
 53.52548	 3.35000	      -0.32644	3.38712
 53.62543	 3.36000	      -0.32657	3.38713
 53.72546	 3.37000	      -0.32680	3.38715
 53.82556	 3.38000	      -0.32668	3.38716
 53.92564	 3.39000	      -0.32699	3.38718
 54.02575	 3.40000	      -0.32716	3.38719
 54.12590	 3.41000	      -0.32719	3.38720
 54.22598	 3.42000	      -0.32728	3.38722
 54.32613	 3.43000	      -0.32733	3.38723
 54.42623	 3.44000	      -0.32737	3.38724
 54.52630	 3.45000	      -0.32722	3.38725
 54.62636	 3.46000	      -0.32728	3.38727
 54.72636	 3.47000	      -0.32745	3.38728
 54.82633	 3.48000	      -0.32751	3.38729
 54.92638	 3.49000	      -0.32769	3.38730
 55.02644	 3.50000	      -0.32780	3.38731
 55.12644	 3.51000	      -0.32790	3.38732
 55.22648	 3.52000	      -0.32802	3.38733
 55.32652	 3.53000	      -0.32807	3.38734
 55.42652	 3.54000	      -0.32819	3.38735
 55.52657	 3.55000	      -0.32826	3.38736
 55.62661	 3.56000	      -0.32833	3.38737
 55.72657	 3.57000	      -0.32820	3.38738
 55.82652	 3.58000	      -0.32841	3.38739
 55.92657	 3.59000	      -0.32831	3.38740
 56.02657	 3.60000	      -0.32839	3.38741
 56.12661	 3.61000	      -0.32839	3.38742
 56.22664	 3.62000	      -0.32842	3.38742
 56.32669	 3.63000	      -0.32848	3.38743
 56.42669	 3.64000	      -0.32854	3.38744
 56.52664	 3.65000	      -0.32863	3.38745
 56.62666	 3.66000	      -0.32854	3.38745
 56.72667	 3.67000	      -0.32863	3.38746
 56.82669	 3.68000	      -0.32872	3.38747
 56.92667	 3.69000	      -0.32875	3.38747
 57.02666	 3.70000	      -0.32871	3.38748
 57.12672	 3.71000	      -0.32870	3.38748
 57.22679	 3.72000	      -0.32892	3.38749
 57.32684	 3.73000	      -0.32908	3.38750
 57.42687	 3.74000	      -0.32918	3.38750
 57.52690	 3.75000	      -0.32923	3.38750
 57.62695	 3.76000	      -0.32905	3.38751
 57.72700	 3.77000	      -0.32909	3.38751
 57.82705	 3.78000	      -0.32914	3.38752
 57.92702	 3.79000	      -0.32916	3.38752
 58.02698	 3.80000	      -0.32909	3.38752
 58.12697	 3.81000	      -0.32904	3.38753
 58.22695	 3.82000	      -0.32900	3.38753
 58.32695	 3.83000	      -0.32915	3.38753
 58.42690	 3.84000	      -0.32911	3.38754
 58.52689	 3.85000	      -0.32918	3.38754
 58.62685	 3.86000	      -0.32905	3.38754
 58.72685	 3.87000	      -0.32914	3.38754
 58.82689	 3.88000	      -0.32916	3.38754
 58.92695	 3.89000	      -0.32917	3.38754
 59.02690	 3.90000	      -0.32919	3.38754
 59.12687	 3.91000	      -0.32916	3.38755
 59.22697	 3.92000	      -0.32921	3.38755
 59.32695	 3.93000	      -0.32933	3.38755
 59.42697	 3.94000	      -0.32938	3.38755
 59.52707	 3.95000	      -0.32932	3.38754
 59.62710	 3.96000	      -0.32938	3.38754
 59.72720	 3.97000	      -0.32952	3.38754
 59.82729	 3.98000	      -0.32949	3.38754
 59.92736	 3.99000	      -0.32951	3.38754
 60.02743	 4.00000	      -0.32953	3.38754
 60.12744	 4.01000	      -0.32974	3.38754
 60.22749	 4.02000	      -0.32961	3.38754
 60.32751	 4.03000	      -0.32962	3.38753
 60.42754	 4.04000	      -0.32960	3.38753
 60.52764	 4.05000	      -0.32952	3.38753
 60.62770	 4.06000	      -0.32959	3.38752
 60.72772	 4.07000	      -0.32957	3.38752
 60.82782	 4.08000	      -0.32952	3.38752
 60.92780	 4.09000	      -0.32950	3.38751
 61.02787	 4.10000	      -0.32948	3.38751
 61.12790	 4.11000	      -0.32943	3.38750
 61.22789	 4.12000	      -0.32944	3.38750
 61.32790	 4.13000	      -0.32951	3.38749
 61.42789	 4.14000	      -0.32949	3.38749
 61.52785	 4.15000	      -0.32947	3.38748
 61.62789	 4.16000	      -0.32954	3.38748
 61.72792	 4.17000	      -0.32946	3.38747
 61.82790	 4.18000	      -0.32941	3.38747
 61.92792	 4.19000	      -0.32934	3.38746
