#EXPORTTYPE:                 	DATA SINGLE                            
#FILE:                       	SK_Mix_resin_entalp75kpm_20-150.ngb-sdg
#FORMAT:                     	NETZSCH5                               
#FTYPE:                      	ASCII                                  
#IDENTITY:                   	SK_epoxy                               
#DECIMAL:                    	POINT                                  
#SEPARATOR:                  	TAB                                    
#MTYPE:                      	DSC                                    
#INSTRUMENT:                 	NETZSCH DSC 214                        
#PROJECT:                    	?ø?†??-Ø                             
#DATE/TIME:                  	12.09.2019 20:53:40 (UTC+3)            
#CORR. FILE:                 	                                       
#TEMPCAL:                    	applied                                
#SENSITIVITY:                	applied                                
#LABORATORY:                 	CISIS                                  
#OPERATOR:                   	Nasonov                                
#REMARK:                     	                                       
#SAMPLE:                     	20190907_1083-G290S -0-                
#SAMPLE MASS /mg:            	9.12                                   
#MATERIAL:                   	                                       
#REFERENCE:                  	                                       
#REFERENCE MASS /mg:         	0                                      
#TYPE OF CRUCIBLE:           	Concavus Pan Al, pierced lid           
#SAMPLE CRUCIBLE MASS /mg:   	0                                      
#REFERENCE CRUCIBLE MASS /mg:	0                                      
#M.RANGE /ßV:                	5000                                   
#TAU-R:                      	---                                    
#CORR. CODE:                 	009                                    
#EXO:                        	+1                                     
#RANGE:                      	20ËC/7.5(K/min)/150ËC                  
#SEGMENT:                    	S1/1                                   
#SEG. 1:                     	20ËC/7.5(K/min)/150ËC                  

##Temp./ËC	Time/min	DSC/(mW/mg)	Sensit./(uV/mW)
 20.07100	 0.00000	 2.965977e-002	3.36739
 20.06920	 0.01000	 2.990771e-002	3.36739
 20.06833	 0.02000	 3.003087e-002	3.36739
 20.07369	 0.03000	 3.003104e-002	3.36739
 20.08965	 0.04000	 2.871651e-002	3.36741
 20.11686	 0.05000	 2.402773e-002	3.36744
 20.15492	 0.06000	 1.544244e-002	3.36748
 20.20369	 0.07000	 2.986350e-003	3.36753
 20.26224	 0.08000	-1.254509e-002	3.36759
 20.32938	 0.09000	-3.075621e-002	3.36766
 20.40441	 0.10000	-5.072572e-002	3.36773
 20.48629	 0.11000	-7.208288e-002	3.36782
 20.57388	 0.12000	-9.455272e-002	3.36791
 20.66609	 0.13000	      -0.11781	3.36800
 20.74973	 0.14000	      -0.14130	3.36809
 20.82525	 0.15000	      -0.16483	3.36817
 20.90502	 0.16000	      -0.18840	3.36825
 20.98896	 0.17000	      -0.21135	3.36833
 21.07696	 0.18000	      -0.23358	3.36842
 21.16867	 0.19000	      -0.25496	3.36852
 21.26362	 0.20000	      -0.27526	3.36861
 21.36136	 0.21000	      -0.29403	3.36871
 21.46145	 0.22000	      -0.31162	3.36881
 21.56353	 0.23000	      -0.32780	3.36891
 21.66716	 0.24000	      -0.34244	3.36902
 21.77207	 0.25000	      -0.35573	3.36912
 21.87782	 0.26000	      -0.36699	3.36923
 21.98400	 0.27000	      -0.37691	3.36933
 22.09029	 0.28000	      -0.38518	3.36944
 22.19631	 0.29000	      -0.39176	3.36954
 22.30191	 0.30000	      -0.39690	3.36964
 22.40693	 0.31000	      -0.40063	3.36975
 22.51093	 0.32000	      -0.40322	3.36985
 22.61375	 0.33000	      -0.40417	3.36995
 22.71518	 0.34000	      -0.40375	3.37005
 22.81507	 0.35000	      -0.40254	3.37014
 22.91329	 0.36000	      -0.39995	3.37024
 23.00964	 0.37000	      -0.39656	3.37033
 23.10422	 0.38000	      -0.39229	3.37042
 23.19685	 0.39000	      -0.38710	3.37051
 23.28756	 0.40000	      -0.38161	3.37060
 23.37635	 0.41000	      -0.37523	3.37068
 23.46309	 0.42000	      -0.36854	3.37076
 23.54789	 0.43000	      -0.36142	3.37084
 23.63084	 0.44000	      -0.35405	3.37092
 23.71178	 0.45000	      -0.34662	3.37100
 23.79102	 0.46000	      -0.33911	3.37107
 23.86849	 0.47000	      -0.33155	3.37115
 23.94431	 0.48000	      -0.32411	3.37122
 24.01858	 0.49000	      -0.31673	3.37129
 24.09144	 0.50000	      -0.30954	3.37135
 24.16295	 0.51000	      -0.30267	3.37142
 24.23322	 0.52000	      -0.29585	3.37149
 24.30233	 0.53000	      -0.28943	3.37155
 24.37042	 0.54000	      -0.28346	3.37161
 24.43764	 0.55000	      -0.27769	3.37167
 24.50411	 0.56000	      -0.27231	3.37174
 24.56989	 0.57000	      -0.26731	3.37180
 24.63505	 0.58000	      -0.26261	3.37186
 24.69973	 0.59000	      -0.25835	3.37192
 24.76402	 0.60000	      -0.25479	3.37197
 24.82802	 0.61000	      -0.25162	3.37203
 24.89185	 0.62000	      -0.24873	3.37209
 24.95560	 0.63000	      -0.24621	3.37215
 25.01942	 0.64000	      -0.24432	3.37221
 25.08333	 0.65000	      -0.24275	3.37226
 25.14733	 0.66000	      -0.24132	3.37232
 25.21147	 0.67000	      -0.24038	3.37238
 25.27589	 0.68000	      -0.24001	3.37244
 25.34064	 0.69000	      -0.23998	3.37250
 25.40567	 0.70000	      -0.24011	3.37255
 25.47115	 0.71000	      -0.24036	3.37261
 25.53705	 0.72000	      -0.24108	3.37267
 25.60335	 0.73000	      -0.24200	3.37273
 25.67011	 0.74000	      -0.24304	3.37279
 25.73731	 0.75000	      -0.24443	3.37285
 25.80502	 0.76000	      -0.24584	3.37291
 25.87315	 0.77000	      -0.24735	3.37297
 25.94178	 0.78000	      -0.24931	3.37303
 26.01095	 0.79000	      -0.25109	3.37309
 26.08056	 0.80000	      -0.25289	3.37315
 26.15065	 0.81000	      -0.25479	3.37321
 26.22113	 0.82000	      -0.25650	3.37327
 26.29202	 0.83000	      -0.25835	3.37334
 26.36333	 0.84000	      -0.26037	3.37340
 26.43513	 0.85000	      -0.26232	3.37346
 26.50729	 0.86000	      -0.26424	3.37352
 26.57989	 0.87000	      -0.26614	3.37359
 26.65280	 0.88000	      -0.26786	3.37365
 26.72598	 0.89000	      -0.26954	3.37371
 26.79953	 0.90000	      -0.27119	3.37378
 26.87324	 0.91000	      -0.27286	3.37384
 26.94720	 0.92000	      -0.27433	3.37390
 27.02133	 0.93000	      -0.27564	3.37396
 27.09575	 0.94000	      -0.27707	3.37403
 27.17033	 0.95000	      -0.27840	3.37409
 27.24504	 0.96000	      -0.27966	3.37415
 27.31991	 0.97000	      -0.28059	3.37422
 27.39493	 0.98000	      -0.28160	3.37428
 27.46996	 0.99000	      -0.28256	3.37434
 27.54509	 1.00000	      -0.28334	3.37441
 27.62025	 1.01000	      -0.28415	3.37447
 27.69547	 1.02000	      -0.28474	3.37453
 27.77071	 1.03000	      -0.28538	3.37460
 27.84593	 1.04000	      -0.28564	3.37466
 27.92118	 1.05000	      -0.28615	3.37472
 27.99633	 1.06000	      -0.28639	3.37478
 28.07147	 1.07000	      -0.28686	3.37484
 28.14662	 1.08000	      -0.28736	3.37491
 28.22165	 1.09000	      -0.28741	3.37497
 28.29680	 1.10000	      -0.28746	3.37503
 28.37189	 1.11000	      -0.28756	3.37509
 28.44696	 1.12000	      -0.28771	3.37515
 28.52195	 1.13000	      -0.28796	3.37521
 28.59680	 1.14000	      -0.28804	3.37527
 28.67162	 1.15000	      -0.28812	3.37533
 28.74638	 1.16000	      -0.28805	3.37539
 28.82122	 1.17000	      -0.28795	3.37545
 28.89596	 1.18000	      -0.28788	3.37551
 28.97064	 1.19000	      -0.28785	3.37557
 29.04525	 1.20000	      -0.28784	3.37563
 29.11982	 1.21000	      -0.28781	3.37569
 29.19442	 1.22000	      -0.28765	3.37575
 29.26898	 1.23000	      -0.28755	3.37581
 29.34347	 1.24000	      -0.28749	3.37587
 29.41793	 1.25000	      -0.28759	3.37593
 29.49238	 1.26000	      -0.28758	3.37599
 29.56682	 1.27000	      -0.28757	3.37604
 29.64120	 1.28000	      -0.28762	3.37610
 29.71556	 1.29000	      -0.28754	3.37616
 29.78996	 1.30000	      -0.28751	3.37622
 29.86435	 1.31000	      -0.28758	3.37627
 29.93871	 1.32000	      -0.28767	3.37633
 30.01307	 1.33000	      -0.28782	3.37639
 30.08751	 1.34000	      -0.28795	3.37645
 30.16191	 1.35000	      -0.28798	3.37650
 30.23636	 1.36000	      -0.28801	3.37656
 30.31078	 1.37000	      -0.28814	3.37662
 30.38524	 1.38000	      -0.28844	3.37667
 30.45965	 1.39000	      -0.28850	3.37673
 30.53407	 1.40000	      -0.28855	3.37679
 30.60858	 1.41000	      -0.28863	3.37684
 30.68309	 1.42000	      -0.28881	3.37690
 30.75764	 1.43000	      -0.28889	3.37696
 30.83213	 1.44000	      -0.28907	3.37701
 30.90665	 1.45000	      -0.28935	3.37707
 30.98122	 1.46000	      -0.28968	3.37712
 31.05585	 1.47000	      -0.28988	3.37718
 31.13047	 1.48000	      -0.28991	3.37723
 31.20504	 1.49000	      -0.29016	3.37729
 31.27962	 1.50000	      -0.29041	3.37734
 31.35427	 1.51000	      -0.29039	3.37740
 31.42893	 1.52000	      -0.29067	3.37745
 31.50364	 1.53000	      -0.29072	3.37751
 31.57829	 1.54000	      -0.29085	3.37756
 31.65302	 1.55000	      -0.29107	3.37762
 31.72776	 1.56000	      -0.29133	3.37767
 31.80253	 1.57000	      -0.29163	3.37772
 31.87731	 1.58000	      -0.29178	3.37778
 31.95213	 1.59000	      -0.29206	3.37783
 32.02698	 1.60000	      -0.29233	3.37789
 32.10182	 1.61000	      -0.29266	3.37794
 32.17667	 1.62000	      -0.29279	3.37799
 32.25153	 1.63000	      -0.29324	3.37805
 32.32644	 1.64000	      -0.29346	3.37810
 32.40135	 1.65000	      -0.29376	3.37815
 32.47631	 1.66000	      -0.29372	3.37820
 32.55125	 1.67000	      -0.29389	3.37826
 32.62624	 1.68000	      -0.29410	3.37831
 32.70118	 1.69000	      -0.29435	3.37836
 32.77613	 1.70000	      -0.29452	3.37841
 32.85113	 1.71000	      -0.29475	3.37847
 32.92605	 1.72000	      -0.29505	3.37852
 33.00105	 1.73000	      -0.29530	3.37857
 33.07607	 1.74000	      -0.29564	3.37862
 33.15104	 1.75000	      -0.29543	3.37867
 33.22609	 1.76000	      -0.29572	3.37872
 33.30115	 1.77000	      -0.29576	3.37877
 33.37615	 1.78000	      -0.29582	3.37883
 33.45111	 1.79000	      -0.29611	3.37888
 33.52611	 1.80000	      -0.29613	3.37893
 33.60111	 1.81000	      -0.29632	3.37898
 33.67611	 1.82000	      -0.29658	3.37903
 33.75113	 1.83000	      -0.29679	3.37908
 33.82620	 1.84000	      -0.29681	3.37913
 33.90116	 1.85000	      -0.29695	3.37918
 33.97618	 1.86000	      -0.29694	3.37923
 34.05115	 1.87000	      -0.29687	3.37928
 34.12613	 1.88000	      -0.29698	3.37933
 34.20109	 1.89000	      -0.29728	3.37938
 34.27609	 1.90000	      -0.29735	3.37943
 34.35105	 1.91000	      -0.29734	3.37948
 34.42602	 1.92000	      -0.29734	3.37952
 34.50093	 1.93000	      -0.29731	3.37957
 34.57591	 1.94000	      -0.29765	3.37962
 34.65091	 1.95000	      -0.29774	3.37967
 34.72587	 1.96000	      -0.29756	3.37972
 34.80087	 1.97000	      -0.29773	3.37977
 34.87585	 1.98000	      -0.29802	3.37981
 34.95084	 1.99000	      -0.29812	3.37986
 35.02587	 2.00000	      -0.29803	3.37991
 35.10085	 2.01000	      -0.29814	3.37996
 35.17587	 2.02000	      -0.29820	3.38001
 35.25087	 2.03000	      -0.29849	3.38005
 35.32589	 2.04000	      -0.29858	3.38010
 35.40091	 2.05000	      -0.29876	3.38015
 35.47587	 2.06000	      -0.29905	3.38019
 35.55098	 2.07000	      -0.29916	3.38024
 35.62604	 2.08000	      -0.29935	3.38029
 35.70111	 2.09000	      -0.29958	3.38033
 35.77620	 2.10000	      -0.29977	3.38038
 35.85124	 2.11000	      -0.30008	3.38042
 35.92625	 2.12000	      -0.30015	3.38047
 36.00131	 2.13000	      -0.30018	3.38052
 36.07640	 2.14000	      -0.30056	3.38056
 36.15147	 2.15000	      -0.30067	3.38061
 36.22655	 2.16000	      -0.30077	3.38065
 36.30164	 2.17000	      -0.30083	3.38070
 36.37673	 2.18000	      -0.30115	3.38074
 36.45178	 2.19000	      -0.30121	3.38079
 36.52689	 2.20000	      -0.30139	3.38083
 36.60182	 2.21000	      -0.30157	3.38088
 36.67682	 2.22000	      -0.30172	3.38092
 36.75178	 2.23000	      -0.30187	3.38097
 36.82676	 2.24000	      -0.30203	3.38101
 36.90171	 2.25000	      -0.30206	3.38105
 36.97676	 2.26000	      -0.30204	3.38110
 37.05176	 2.27000	      -0.30210	3.38114
 37.12675	 2.28000	      -0.30256	3.38118
 37.20173	 2.29000	      -0.30269	3.38123
 37.27671	 2.30000	      -0.30285	3.38127
 37.35169	 2.31000	      -0.30306	3.38131
 37.42667	 2.32000	      -0.30320	3.38136
 37.50178	 2.33000	      -0.30331	3.38140
 37.57678	 2.34000	      -0.30347	3.38144
 37.65175	 2.35000	      -0.30368	3.38148
 37.72676	 2.36000	      -0.30391	3.38153
 37.80171	 2.37000	      -0.30402	3.38157
 37.87665	 2.38000	      -0.30418	3.38161
 37.95158	 2.39000	      -0.30439	3.38165
 38.02653	 2.40000	      -0.30453	3.38169
 38.10153	 2.41000	      -0.30486	3.38174
 38.17651	 2.42000	      -0.30498	3.38178
 38.25156	 2.43000	      -0.30536	3.38182
 38.32660	 2.44000	      -0.30566	3.38186
 38.40158	 2.45000	      -0.30578	3.38190
 38.47658	 2.46000	      -0.30571	3.38194
 38.55155	 2.47000	      -0.30584	3.38198
 38.62658	 2.48000	      -0.30606	3.38202
 38.70160	 2.49000	      -0.30624	3.38206
 38.77665	 2.50000	      -0.30639	3.38210
 38.85175	 2.51000	      -0.30659	3.38214
 38.92682	 2.52000	      -0.30679	3.38218
 39.00184	 2.53000	      -0.30704	3.38222
 39.07685	 2.54000	      -0.30723	3.38226
 39.15193	 2.55000	      -0.30735	3.38230
 39.22695	 2.56000	      -0.30769	3.38234
 39.30204	 2.57000	      -0.30783	3.38238
 39.37711	 2.58000	      -0.30790	3.38242
 39.45216	 2.59000	      -0.30791	3.38246
 39.52718	 2.60000	      -0.30796	3.38250
 39.60220	 2.61000	      -0.30830	3.38253
 39.67724	 2.62000	      -0.30846	3.38257
 39.75222	 2.63000	      -0.30855	3.38261
 39.82724	 2.64000	      -0.30862	3.38265
 39.90233	 2.65000	      -0.30869	3.38269
 39.97745	 2.66000	      -0.30888	3.38273
 40.05256	 2.67000	      -0.30892	3.38276
 40.12767	 2.68000	      -0.30908	3.38280
 40.20269	 2.69000	      -0.30930	3.38284
 40.27780	 2.70000	      -0.30946	3.38287
 40.35284	 2.71000	      -0.30960	3.38291
 40.42795	 2.72000	      -0.30974	3.38295
 40.50307	 2.73000	      -0.30970	3.38299
 40.57818	 2.74000	      -0.30989	3.38302
 40.65329	 2.75000	      -0.30988	3.38306
 40.72844	 2.76000	      -0.30990	3.38309
 40.80358	 2.77000	      -0.30989	3.38313
 40.87869	 2.78000	      -0.31008	3.38317
 40.95378	 2.79000	      -0.31024	3.38320
 41.02885	 2.80000	      -0.31042	3.38324
 41.10402	 2.81000	      -0.31050	3.38327
 41.17909	 2.82000	      -0.31055	3.38331
 41.25420	 2.83000	      -0.31083	3.38334
 41.32931	 2.84000	      -0.31093	3.38338
 41.40438	 2.85000	      -0.31130	3.38342
 41.47945	 2.86000	      -0.31165	3.38345
 41.55458	 2.87000	      -0.31168	3.38348
 41.62964	 2.88000	      -0.31171	3.38352
 41.70473	 2.89000	      -0.31193	3.38355
 41.77982	 2.90000	      -0.31226	3.38359
 41.85487	 2.91000	      -0.31231	3.38362
 41.92989	 2.92000	      -0.31236	3.38366
 42.00493	 2.93000	      -0.31242	3.38369
 42.07996	 2.94000	      -0.31254	3.38372
 42.15502	 2.95000	      -0.31259	3.38376
 42.23002	 2.96000	      -0.31256	3.38379
 42.30509	 2.97000	      -0.31271	3.38382
 42.38007	 2.98000	      -0.31280	3.38386
 42.45507	 2.99000	      -0.31285	3.38389
 42.52996	 3.00000	      -0.31290	3.38392
 42.60491	 3.01000	      -0.31309	3.38395
 42.67985	 3.02000	      -0.31324	3.38399
 42.75476	 3.03000	      -0.31331	3.38402
 42.82964	 3.04000	      -0.31346	3.38405
 42.90453	 3.05000	      -0.31365	3.38408
 42.97945	 3.06000	      -0.31368	3.38411
 43.05442	 3.07000	      -0.31389	3.38415
 43.12940	 3.08000	      -0.31428	3.38418
 43.20442	 3.09000	      -0.31447	3.38421
 43.27935	 3.10000	      -0.31463	3.38424
 43.35429	 3.11000	      -0.31483	3.38427
 43.42920	 3.12000	      -0.31492	3.38430
 43.50415	 3.13000	      -0.31496	3.38433
 43.57909	 3.14000	      -0.31515	3.38436
 43.65402	 3.15000	      -0.31527	3.38439
 43.72896	 3.16000	      -0.31556	3.38442
 43.80395	 3.17000	      -0.31573	3.38445
 43.87895	 3.18000	      -0.31599	3.38448
 43.95396	 3.19000	      -0.31628	3.38451
 44.02900	 3.20000	      -0.31644	3.38454
 44.10404	 3.21000	      -0.31667	3.38457
 44.17905	 3.22000	      -0.31683	3.38460
 44.25404	 3.23000	      -0.31712	3.38463
 44.32904	 3.24000	      -0.31713	3.38466
 44.40407	 3.25000	      -0.31732	3.38469
 44.47915	 3.26000	      -0.31738	3.38472
 44.55425	 3.27000	      -0.31744	3.38475
 44.62940	 3.28000	      -0.31760	3.38478
 44.70455	 3.29000	      -0.31781	3.38480
 44.77962	 3.30000	      -0.31802	3.38483
 44.85473	 3.31000	      -0.31813	3.38486
 44.92982	 3.32000	      -0.31829	3.38489
 45.00496	 3.33000	      -0.31843	3.38492
 45.08002	 3.34000	      -0.31856	3.38494
 45.15511	 3.35000	      -0.31871	3.38497
 45.23013	 3.36000	      -0.31887	3.38500
 45.30518	 3.37000	      -0.31898	3.38503
 45.38027	 3.38000	      -0.31911	3.38505
 45.45536	 3.39000	      -0.31924	3.38508
 45.53045	 3.40000	      -0.31927	3.38511
 45.60553	 3.41000	      -0.31930	3.38513
 45.68053	 3.42000	      -0.31953	3.38516
 45.75553	 3.43000	      -0.31962	3.38519
 45.83058	 3.44000	      -0.31963	3.38521
 45.90565	 3.45000	      -0.31958	3.38524
 45.98067	 3.46000	      -0.31957	3.38527
 46.05573	 3.47000	      -0.31992	3.38529
 46.13075	 3.48000	      -0.32007	3.38532
 46.20575	 3.49000	      -0.32025	3.38534
 46.28078	 3.50000	      -0.32037	3.38537
 46.35578	 3.51000	      -0.32042	3.38539
 46.43075	 3.52000	      -0.32033	3.38542
 46.50571	 3.53000	      -0.32055	3.38544
 46.58064	 3.54000	      -0.32076	3.38547
 46.65558	 3.55000	      -0.32078	3.38549
 46.73055	 3.56000	      -0.32108	3.38552
 46.80555	 3.57000	      -0.32126	3.38554
 46.88058	 3.58000	      -0.32126	3.38556
 46.95562	 3.59000	      -0.32129	3.38559
 47.03056	 3.60000	      -0.32147	3.38561
 47.10560	 3.61000	      -0.32169	3.38564
 47.18056	 3.62000	      -0.32186	3.38566
 47.25556	 3.63000	      -0.32205	3.38568
 47.33056	 3.64000	      -0.32217	3.38571
 47.40556	 3.65000	      -0.32238	3.38573
 47.48055	 3.66000	      -0.32245	3.38575
 47.55558	 3.67000	      -0.32254	3.38577
 47.63060	 3.68000	      -0.32293	3.38580
 47.70564	 3.69000	      -0.32302	3.38582
 47.78069	 3.70000	      -0.32324	3.38584
 47.85565	 3.71000	      -0.32338	3.38586
 47.93069	 3.72000	      -0.32350	3.38589
 48.00573	 3.73000	      -0.32352	3.38591
 48.08078	 3.74000	      -0.32377	3.38593
 48.15582	 3.75000	      -0.32378	3.38595
 48.23084	 3.76000	      -0.32384	3.38597
 48.30593	 3.77000	      -0.32389	3.38599
 48.38105	 3.78000	      -0.32408	3.38602
 48.45613	 3.79000	      -0.32436	3.38604
 48.53116	 3.80000	      -0.32454	3.38606
 48.60616	 3.81000	      -0.32474	3.38608
 48.68122	 3.82000	      -0.32483	3.38610
 48.75636	 3.83000	      -0.32503	3.38612
 48.83151	 3.84000	      -0.32521	3.38614
 48.90667	 3.85000	      -0.32520	3.38616
 48.98182	 3.86000	      -0.32516	3.38618
 49.05693	 3.87000	      -0.32523	3.38620
 49.13207	 3.88000	      -0.32540	3.38622
 49.20716	 3.89000	      -0.32545	3.38624
 49.28227	 3.90000	      -0.32551	3.38626
 49.35736	 3.91000	      -0.32563	3.38628
 49.43242	 3.92000	      -0.32568	3.38630
 49.50744	 3.93000	      -0.32586	3.38632
 49.58249	 3.94000	      -0.32603	3.38633
 49.65755	 3.95000	      -0.32621	3.38635
 49.73256	 3.96000	      -0.32645	3.38637
 49.80758	 3.97000	      -0.32663	3.38639
 49.88264	 3.98000	      -0.32685	3.38641
 49.95767	 3.99000	      -0.32691	3.38643
 50.03267	 4.00000	      -0.32690	3.38644
 50.10769	 4.01000	      -0.32688	3.38646
 50.18267	 4.02000	      -0.32689	3.38648
 50.25764	 4.03000	      -0.32710	3.38650
 50.33262	 4.04000	      -0.32723	3.38651
 50.40760	 4.05000	      -0.32756	3.38653
 50.48260	 4.06000	      -0.32750	3.38655
 50.55762	 4.07000	      -0.32750	3.38657
 50.63269	 4.08000	      -0.32749	3.38658
 50.70771	 4.09000	      -0.32757	3.38660
 50.78262	 4.10000	      -0.32793	3.38662
 50.85758	 4.11000	      -0.32801	3.38663
 50.93247	 4.12000	      -0.32809	3.38665
 51.00733	 4.13000	      -0.32825	3.38666
 51.08220	 4.14000	      -0.32848	3.38668
 51.15722	 4.15000	      -0.32869	3.38670
 51.23220	 4.16000	      -0.32892	3.38671
 51.30722	 4.17000	      -0.32913	3.38673
 51.38220	 4.18000	      -0.32934	3.38674
 51.45716	 4.19000	      -0.32930	3.38676
 51.53216	 4.20000	      -0.32943	3.38677
